X[m]	Y[m]	Z[m]	WSS[Pa]
1.332000	9.364000	-14.140000	30.172800
1.465000	9.228000	-14.225000	29.932200
1.151000	9.263000	-14.225000	26.411400
1.642000	9.149000	-14.178000	16.129300
1.804000	9.138000	-14.168000	9.938710
1.746000	9.260000	-14.132000	23.341600
1.608000	9.299000	-14.139000	30.653600
1.944000	9.313000	-14.143000	23.888100
1.732000	9.399000	-14.033000	32.304700
0.420000	12.807000	-9.566000	1.252470
0.226000	12.822000	-9.582000	1.484920
0.302000	12.685000	-9.526000	1.358190
0.450000	12.649000	-9.512000	1.215130
0.169000	12.974000	-9.656000	1.473280
0.079000	12.877000	-9.611000	1.541210
0.352000	12.569000	-9.486000	1.251260
0.080000	12.771000	-9.565000	1.504960
0.149000	12.670000	-9.526000	1.446510
-0.018000	12.978000	-9.675000	1.553090
0.339000	12.952000	-9.632000	1.302370
0.551000	12.720000	-9.540000	1.103450
0.111000	13.104000	-9.743000	1.511760
-0.056000	13.124000	-9.784000	1.623720
0.509000	12.947000	-9.624000	1.120130
-0.262000	13.438000	-11.469000	3.099130
-0.220000	13.439000	-11.625000	2.799190
-0.329000	13.367000	-11.558000	2.989850
-0.058000	12.814000	-9.588000	1.493450
-0.002000	12.668000	-9.528000	1.451160
0.223000	12.550000	-9.485000	1.359490
-0.182000	13.028000	-9.717000	1.515210
-0.217000	13.140000	-9.815000	1.614640
-0.348000	13.335000	-11.681000	2.450380
-0.259000	13.400000	-11.788000	2.217200
-0.131000	13.487000	-11.752000	2.447340
-0.111000	13.249000	-9.911000	1.770970
0.464000	12.498000	-9.485000	1.253600
-0.383000	13.345000	-11.441000	3.138080
0.281000	13.087000	-9.712000	1.332070
0.444000	13.069000	-9.692000	1.188380
-0.152000	13.513000	-11.502000	2.892090
-0.075000	13.539000	-11.608000	2.618010
0.070000	13.222000	-9.861000	1.713510
0.601000	12.580000	-9.517000	1.108700
0.590000	12.403000	-9.497000	1.247890
0.704000	12.483000	-9.527000	1.065940
0.600000	12.833000	-9.584000	1.023360
0.599000	13.050000	-9.696000	1.125080
-0.313000	13.430000	-11.328000	3.194160
-0.447000	13.332000	-11.304000	3.164680
-0.228000	13.513000	-11.223000	3.034470
-0.374000	13.422000	-11.176000	3.121200
-0.270000	13.506000	-11.103000	2.904820
-0.353000	13.466000	-11.041000	2.903030
-0.249000	13.535000	-10.966000	2.730630
-0.185000	12.898000	-9.639000	1.488110
0.063000	12.521000	-9.483000	1.420920
-0.096000	12.550000	-9.503000	1.467200
-0.146000	12.679000	-9.543000	1.484800
0.325000	12.442000	-9.465000	1.357940
0.439000	12.346000	-9.466000	1.374080
-0.289000	13.209000	-9.919000	1.826800
-0.236000	13.290000	-10.004000	1.874040
-0.119000	13.357000	-10.067000	1.939690
-0.434000	13.269000	-11.568000	2.699810
-0.391000	13.456000	-10.922000	2.820220
-0.312000	13.506000	-10.835000	2.678910
0.546000	12.244000	-9.475000	1.337940
0.662000	12.280000	-9.501000	1.244110
-0.315000	13.051000	-9.756000	1.438830
-0.385000	13.303000	-11.827000	1.707230
-0.163000	13.446000	-11.905000	2.151670
-0.300000	13.350000	-10.114000	1.937330
-0.175000	13.520000	-11.367000	3.021410
0.239000	13.201000	-9.821000	1.567820
0.401000	13.185000	-9.787000	1.358980
0.552000	13.163000	-9.765000	1.210750
0.044000	13.327000	-9.990000	1.870780
0.742000	12.365000	-9.526000	1.106290
-0.147000	13.577000	-11.100000	2.756810
0.008000	13.560000	-11.740000	2.441200
-0.050000	13.514000	-11.861000	2.312010
0.690000	12.712000	-9.561000	0.963058
-0.209000	13.409000	-10.201000	2.132430
0.767000	12.590000	-9.557000	0.950775
0.677000	12.943000	-9.649000	1.038850
0.676000	13.126000	-9.767000	1.166080
-0.023000	13.591000	-11.437000	2.681860
-0.184000	13.563000	-10.820000	2.663350
-0.290000	13.517000	-10.704000	2.533600
0.778000	12.228000	-9.524000	1.112850
-0.204000	12.776000	-9.587000	1.493090
-0.460000	13.389000	-11.038000	3.018890
-0.517000	13.317000	-11.163000	3.102590
-0.433000	13.440000	-10.767000	2.653290
-0.399000	13.457000	-10.602000	2.358770
-0.244000	13.513000	-10.556000	2.398180
-0.369000	13.112000	-9.841000	1.637740
-0.377000	13.257000	-10.030000	1.922450
0.180000	12.402000	-9.459000	1.441240
0.294000	12.293000	-9.450000	1.451070
-0.327000	12.941000	-9.687000	1.429150
-0.332000	12.805000	-9.618000	1.451350
0.409000	12.189000	-9.454000	1.426460
0.662000	12.148000	-9.491000	1.245500
-0.298000	13.367000	-11.945000	1.633380
-0.508000	13.240000	-11.436000	2.892430
-0.466000	13.223000	-11.712000	1.859610
-0.425000	13.276000	-11.972000	1.157110
-0.351000	13.447000	-10.435000	2.229700
-0.063000	12.432000	-9.473000	1.438860
-0.473000	13.371000	-10.378000	2.230460
-0.371000	13.380000	-10.265000	2.156400
-0.227000	12.567000	-9.522000	1.488740
-0.077000	13.591000	-11.254000	2.806230
-0.252000	13.448000	-10.319000	2.235960
-0.087000	13.601000	-10.951000	2.745280
-0.137000	13.565000	-10.671000	2.557890
-0.034000	13.607000	-10.793000	2.699630
0.073000	13.611000	-11.598000	2.373340
0.160000	13.641000	-11.453000	2.597770
0.090000	13.640000	-11.287000	2.795530
-0.180000	13.498000	-10.419000	2.326040
0.209000	13.307000	-9.939000	1.782210
0.766000	12.828000	-9.619000	0.943575
0.844000	12.701000	-9.613000	0.922982
0.835000	12.462000	-9.559000	0.940879
0.878000	12.323000	-9.567000	0.977268
-0.075000	13.427000	-10.183000	2.158450
0.043000	13.413000	-10.122000	2.019990
0.372000	13.289000	-9.896000	1.594190
0.751000	13.041000	-9.729000	1.109240
0.534000	13.268000	-9.862000	1.348650
0.679000	13.222000	-9.841000	1.215170
0.083000	13.541000	-11.875000	2.433580
-0.023000	13.478000	-12.003000	2.175150
-0.299000	12.671000	-9.562000	1.488250
-0.579000	13.229000	-11.290000	2.944600
-0.515000	13.371000	-10.899000	2.929170
0.531000	12.086000	-9.460000	1.320680
-0.461000	12.996000	-9.764000	1.433520
-0.470000	12.850000	-9.675000	1.380770
0.039000	12.351000	-9.451000	1.411920
0.149000	12.243000	-9.439000	1.420990
0.264000	12.135000	-9.440000	1.437920
-0.499000	13.194000	-11.864000	1.141170
-0.567000	13.148000	-11.585000	2.023030
-0.579000	13.114000	-11.759000	1.012220
-0.588000	13.297000	-11.017000	3.012380
-0.440000	13.169000	-9.945000	1.811700
-0.452000	13.290000	-10.154000	2.092550
-0.192000	13.410000	-12.060000	1.642620
-0.508000	13.389000	-10.506000	2.251410
-0.538000	13.374000	-10.654000	2.481150
0.664000	11.991000	-9.483000	1.215130
0.793000	12.079000	-9.523000	1.141000
-0.535000	13.303000	-10.282000	2.240500
-0.211000	12.428000	-9.488000	1.455940
-0.370000	12.517000	-9.533000	1.483810
-0.348000	13.328000	-12.109000	1.071280
-0.604000	12.895000	-9.761000	1.357660
-0.117000	13.468000	-10.293000	2.244780
0.029000	13.632000	-11.101000	2.828650
0.067000	13.639000	-10.919000	2.852000
0.191000	13.404000	-10.065000	1.823240
0.347000	13.390000	-10.012000	1.644750
-0.081000	13.551000	-10.526000	2.455250
0.021000	13.597000	-10.641000	2.606940
0.914000	12.568000	-9.616000	0.932093
0.969000	12.426000	-9.626000	0.941970
0.163000	13.601000	-11.747000	2.358160
0.243000	13.640000	-11.609000	2.381320
0.152000	13.521000	-12.006000	2.389000
0.089000	13.477000	-12.132000	1.977170
0.509000	13.370000	-9.969000	1.402700
0.909000	12.175000	-9.571000	1.014820
0.832000	12.930000	-9.707000	1.063280
0.914000	12.808000	-9.692000	1.016010
0.029000	13.477000	-10.256000	2.199130
0.797000	13.135000	-9.823000	1.193740
0.686000	13.340000	-9.940000	1.180540
0.266000	13.664000	-11.320000	2.805720
-0.467000	12.677000	-9.602000	1.421480
-0.492000	13.081000	-9.871000	1.655150
-0.562000	13.352000	-10.781000	2.725380
-0.608000	12.758000	-9.677000	1.330740
-0.078000	13.430000	-12.176000	1.586920
-0.225000	13.381000	-12.218000	1.164500
-0.650000	13.215000	-11.142000	2.949910
-0.107000	12.301000	-9.455000	1.376190
0.002000	12.193000	-9.436000	1.323120
0.115000	12.083000	-9.426000	1.303790
-0.643000	13.140000	-11.424000	2.464730
0.386000	12.028000	-9.444000	1.390100
-0.523000	13.200000	-10.058000	2.020000
-0.601000	13.211000	-10.186000	2.236890
-0.476000	13.249000	-12.088000	0.905290
-0.548000	13.180000	-12.006000	0.937542
-0.619000	13.092000	-11.913000	0.868537
0.519000	11.920000	-9.456000	1.262800
-0.601000	13.008000	-9.861000	1.532150
-0.598000	13.298000	-10.420000	2.315220
-0.647000	13.277000	-10.871000	2.819250
-0.639000	13.292000	-10.566000	2.413610
-0.340000	12.365000	-9.496000	1.439040
-0.670000	13.047000	-11.676000	1.040500
-0.732000	12.797000	-9.772000	1.314140
-0.726000	12.678000	-9.705000	1.316200
0.803000	11.922000	-9.529000	1.177220
0.218000	13.503000	-12.105000	2.177790
0.199000	13.475000	-12.220000	1.780570
-0.021000	13.524000	-10.387000	2.315940
0.209000	13.665000	-11.159000	2.928900
0.172000	13.659000	-11.019000	3.026960
0.176000	13.485000	-10.204000	1.951340
0.326000	13.481000	-10.145000	1.693510
0.480000	13.463000	-10.091000	1.462850
0.123000	13.636000	-10.763000	2.759390
0.227000	13.661000	-10.886000	3.005350
0.891000	13.030000	-9.799000	1.168320
0.975000	12.909000	-9.790000	1.157660
0.632000	13.448000	-10.050000	1.210070
0.246000	13.572000	-11.891000	2.424210
0.330000	13.610000	-11.757000	2.409320
0.335000	13.658000	-11.474000	2.608720
1.012000	12.277000	-9.630000	0.957338
0.928000	12.018000	-9.580000	1.100970
1.039000	12.121000	-9.644000	1.002320
0.081000	13.576000	-10.494000	2.386760
0.985000	12.673000	-9.696000	1.014670
1.046000	12.532000	-9.703000	1.029490
0.824000	13.239000	-9.915000	1.173090
0.330000	13.499000	-12.155000	2.064860
-0.579000	13.109000	-9.963000	1.772950
-0.666000	13.279000	-10.719000	2.549890
-0.637000	12.612000	-9.631000	1.336030
-0.538000	12.507000	-9.573000	1.447350
-0.714000	13.133000	-11.273000	2.654780
-0.719000	13.196000	-10.988000	2.870610
0.056000	13.434000	-12.279000	1.535380
-0.107000	13.382000	-12.350000	1.269490
-0.253000	13.343000	-12.346000	1.033070
-0.363000	13.319000	-12.273000	0.877448
-0.252000	12.258000	-9.466000	1.334730
-0.147000	12.147000	-9.443000	1.246940
0.234000	11.974000	-9.429000	1.297990
0.362000	11.866000	-9.435000	1.248920
-0.697000	13.006000	-11.812000	0.569799
-0.481000	13.263000	-12.209000	0.808116
-0.592000	13.189000	-12.145000	0.947411
-0.733000	12.921000	-9.864000	1.391880
-0.856000	12.813000	-9.872000	1.287660
-0.844000	12.681000	-9.779000	1.262850
-0.036000	12.033000	-9.426000	1.171000
-0.471000	12.370000	-9.525000	1.433420
-0.663000	13.118000	-10.085000	2.042140
-0.718000	13.044000	-11.549000	1.675360
-0.673000	13.211000	-10.323000	2.359120
-0.727000	13.201000	-10.472000	2.485920
0.669000	11.807000	-9.480000	1.112800
-0.672000	13.090000	-12.066000	1.305830
0.827000	11.780000	-9.540000	1.160760
0.328000	13.472000	-12.295000	1.570630
0.139000	13.541000	-10.348000	2.179800
0.307000	13.532000	-12.021000	2.398190
0.412000	13.637000	-11.620000	2.498600
0.430000	13.568000	-11.906000	2.477600
0.492000	13.600000	-11.753000	2.577200
0.334000	13.672000	-11.025000	3.112660
0.380000	13.673000	-11.195000	2.938150
0.438000	13.667000	-11.349000	2.755920
0.311000	13.558000	-10.305000	1.871520
0.460000	13.541000	-10.221000	1.558770
0.180000	13.626000	-10.612000	2.482570
0.281000	13.658000	-10.735000	2.690130
1.094000	12.382000	-9.714000	1.038400
0.940000	11.856000	-9.598000	1.208360
1.058000	11.960000	-9.658000	1.090060
1.133000	12.228000	-9.723000	1.027200
0.936000	13.131000	-9.899000	1.179660
1.025000	13.008000	-9.894000	1.227240
1.048000	12.777000	-9.790000	1.159370
1.111000	12.635000	-9.798000	1.181480
0.765000	13.408000	-10.053000	1.146020
0.858000	13.332000	-10.020000	1.149830
0.610000	13.526000	-10.176000	1.336110
1.068000	11.792000	-9.679000	1.224580
0.465000	13.491000	-12.222000	1.838480
-0.709000	13.024000	-9.976000	1.700720
-0.767000	13.191000	-10.631000	2.447020
-0.784000	13.168000	-10.814000	2.592560
-0.399000	12.229000	-9.486000	1.309390
-0.304000	12.085000	-9.453000	1.108650
-0.171000	12.005000	-9.433000	1.057610
-0.799000	12.543000	-9.680000	1.248690
-0.680000	12.477000	-9.611000	1.370020
-0.781000	13.119000	-11.123000	2.754200
0.076000	11.920000	-9.418000	1.099470
0.204000	11.815000	-9.420000	1.078690
-0.782000	13.045000	-11.400000	2.153570
-0.743000	12.995000	-11.971000	1.474380
0.185000	13.444000	-12.361000	1.382110
0.046000	13.397000	-12.438000	1.314590
-0.840000	12.926000	-9.989000	1.577920
0.492000	11.755000	-9.444000	1.119740
-0.222000	13.318000	-12.471000	1.101840
-0.362000	13.295000	-12.421000	0.882727
-0.487000	13.256000	-12.355000	0.777043
-0.611000	13.200000	-12.288000	0.855551
-0.622000	12.359000	-9.565000	1.409000
-0.719000	13.109000	-12.215000	1.197170
-0.741000	13.118000	-10.220000	2.291790
-0.799000	13.102000	-10.368000	2.513810
-0.804000	12.943000	-11.688000	0.594631
-0.959000	12.685000	-9.894000	1.277400
0.773000	11.649000	-9.515000	1.030830
0.460000	13.471000	-12.374000	1.337700
0.241000	13.601000	-10.461000	2.155760
0.461000	13.523000	-12.067000	2.295690
0.939000	11.673000	-9.607000	1.180760
0.380000	13.675000	-10.859000	2.947150
1.165000	12.068000	-9.733000	1.038320
1.181000	11.903000	-9.750000	1.112140
0.338000	13.652000	-10.588000	2.182560
0.505000	13.646000	-11.494000	2.625590
0.577000	13.616000	-11.628000	2.606790
0.970000	13.228000	-10.007000	1.150930
1.069000	13.109000	-10.000000	1.212330
0.545000	13.659000	-11.236000	2.929370
0.500000	13.667000	-11.087000	3.219350
0.602000	13.508000	-12.149000	2.061750
0.601000	13.486000	-12.304000	1.544120
1.162000	12.487000	-9.811000	1.216280
0.460000	13.598000	-10.338000	1.618800
0.591000	13.600000	-10.300000	1.360570
1.104000	12.877000	-9.894000	1.276530
1.207000	12.333000	-9.822000	1.245770
1.162000	12.735000	-9.906000	1.374460
0.757000	13.488000	-10.153000	1.226660
0.883000	13.413000	-10.141000	1.187920
0.573000	13.567000	-11.856000	2.623810
-0.800000	13.024000	-10.109000	1.985110
-0.549000	12.226000	-9.519000	1.287770
-0.471000	12.089000	-9.484000	1.110350
-0.408000	11.948000	-9.457000	0.875065
-0.266000	11.904000	-9.436000	0.844530
-0.097000	11.861000	-9.418000	0.867208
0.049000	11.759000	-9.411000	0.821932
-0.848000	13.094000	-10.973000	2.648150
0.608000	11.630000	-9.465000	0.981199
-0.819000	12.909000	-11.864000	1.275960
-0.804000	12.986000	-12.139000	1.730930
-0.856000	12.892000	-12.018000	1.976880
-0.080000	13.337000	-12.523000	1.270030
-0.848000	13.089000	-10.522000	2.525940
-0.884000	13.073000	-10.684000	2.475040
-0.847000	13.039000	-11.252000	2.429920
-0.943000	12.554000	-9.789000	1.190700
0.862000	11.510000	-9.560000	0.995491
0.706000	11.495000	-9.497000	0.914518
0.322000	13.444000	-12.445000	1.209400
-0.858000	12.948000	-11.521000	1.455920
0.330000	11.705000	-9.428000	1.039230
-0.950000	12.801000	-10.013000	1.561240
-0.342000	13.256000	-12.562000	0.969980
-0.480000	13.233000	-12.502000	0.821700
-0.614000	13.198000	-12.436000	0.784521
-0.733000	13.123000	-12.372000	0.917526
0.189000	13.401000	-12.518000	1.211500
-0.868000	13.005000	-10.257000	2.314820
-0.781000	12.358000	-9.627000	1.314390
-1.045000	12.668000	-10.035000	1.540610
0.595000	13.470000	-12.457000	1.081770
0.398000	13.626000	-10.448000	1.850140
0.606000	13.534000	-11.988000	2.470480
0.475000	13.672000	-10.958000	3.252730
1.239000	12.174000	-9.835000	1.256420
1.144000	12.973000	-10.009000	1.367160
1.207000	12.832000	-10.020000	1.508190
1.268000	12.012000	-9.849000	1.266840
1.219000	12.588000	-9.918000	1.445850
1.262000	12.436000	-9.933000	1.527200
0.649000	13.581000	-11.749000	2.633090
1.192000	11.740000	-9.781000	1.243380
1.095000	11.628000	-9.701000	1.205750
0.994000	13.318000	-10.126000	1.184120
1.097000	13.202000	-10.120000	1.214030
0.554000	13.646000	-10.435000	1.527440
0.741000	13.491000	-12.236000	1.749030
0.741000	13.483000	-12.387000	1.255530
0.439000	13.677000	-10.714000	2.412770
0.538000	13.673000	-10.837000	2.889180
0.740000	13.563000	-10.278000	1.289590
0.876000	13.489000	-10.266000	1.299590
0.605000	13.644000	-11.377000	2.730380
0.672000	13.617000	-11.512000	2.666180
0.650000	13.642000	-11.131000	3.127860
-0.919000	12.905000	-10.138000	1.981440
-0.925000	13.044000	-10.838000	2.455400
-0.912000	12.414000	-9.718000	1.259310
-0.699000	12.215000	-9.564000	1.241630
-0.623000	12.082000	-9.520000	1.103580
-0.552000	11.955000	-9.487000	0.902563
-0.493000	11.842000	-9.465000	0.714993
-0.379000	11.789000	-9.443000	0.634571
-0.238000	11.738000	-9.427000	0.554593
-0.093000	11.680000	-9.414000	0.543915
1.009000	11.501000	-9.640000	1.072840
0.177000	11.656000	-9.416000	0.823904
-0.946000	12.832000	-11.626000	0.966030
-0.912000	12.826000	-11.781000	1.114650
0.457000	13.445000	-12.528000	0.995903
0.325000	13.410000	-12.601000	1.028530
0.061000	13.348000	-12.597000	1.279050
-0.461000	13.184000	-12.643000	0.947154
-0.592000	13.159000	-12.580000	0.841170
-0.720000	13.108000	-12.522000	0.834081
-0.201000	13.273000	-12.618000	1.162590
-0.915000	12.951000	-11.370000	1.989260
-0.908000	13.022000	-11.109000	2.540710
-1.027000	12.772000	-10.168000	1.939820
0.445000	11.589000	-9.439000	0.950645
0.549000	11.466000	-9.458000	0.868113
-0.829000	13.015000	-12.307000	1.268830
-1.049000	12.550000	-9.919000	1.259370
-0.924000	12.987000	-10.410000	2.459110
-0.969000	12.973000	-10.568000	2.438150
-0.924000	12.795000	-11.930000	1.957220
-0.896000	12.864000	-12.141000	2.194850
0.792000	11.359000	-9.533000	0.898025
0.725000	13.468000	-12.545000	0.857457
0.496000	13.676000	-10.570000	1.828850
0.626000	13.647000	-10.974000	3.269900
1.298000	12.279000	-9.947000	1.601560
1.328000	12.118000	-9.962000	1.647760
0.711000	13.625000	-10.412000	1.341420
0.856000	13.560000	-10.400000	1.382960
0.743000	13.510000	-12.090000	2.207600
0.600000	13.674000	-10.697000	2.164110
1.180000	13.070000	-10.125000	1.357110
1.244000	12.927000	-10.139000	1.623730
1.140000	11.470000	-9.732000	1.108770
1.221000	11.582000	-9.801000	1.234360
0.999000	13.398000	-10.255000	1.319230
1.286000	11.847000	-9.869000	1.323600
1.105000	13.285000	-10.252000	1.369530
0.704000	13.626000	-11.268000	2.911710
0.709000	13.551000	-11.870000	2.570460
0.862000	13.492000	-12.167000	1.876680
0.900000	13.481000	-12.311000	1.459830
1.260000	12.686000	-10.035000	1.669780
0.740000	13.586000	-11.639000	2.642170
1.307000	12.536000	-10.049000	1.809960
0.769000	13.606000	-11.400000	2.734700
0.871000	13.474000	-12.480000	1.010030
0.746000	13.620000	-11.052000	3.297440
-0.986000	12.875000	-10.295000	2.309590
-1.009000	12.959000	-10.723000	2.341060
-0.321000	13.200000	-12.704000	1.089940
0.587000	13.450000	-12.613000	0.780287
-0.971000	12.995000	-10.978000	2.405640
-1.118000	12.529000	-10.056000	1.522180
-1.112000	12.632000	-10.180000	1.836590
0.037000	11.601000	-9.411000	0.583385
-0.897000	12.282000	-9.680000	1.289540
-0.834000	12.186000	-9.621000	1.206180
-0.764000	12.061000	-9.572000	1.075590
-0.689000	11.934000	-9.531000	0.913959
-0.611000	11.813000	-9.497000	0.709748
-0.508000	11.707000	-9.468000	0.540767
-0.376000	11.613000	-9.442000	0.344097
-0.216000	11.577000	-9.425000	0.269919
-0.684000	13.077000	-12.647000	0.899353
-0.575000	13.093000	-12.714000	0.972010
-0.439000	13.114000	-12.778000	1.084160
-1.039000	12.858000	-10.455000	2.369880
0.642000	11.340000	-9.486000	0.849312
0.937000	11.358000	-9.593000	0.929665
-0.983000	12.855000	-11.471000	1.523330
0.290000	11.545000	-9.425000	0.819822
0.456000	13.414000	-12.684000	0.805831
0.200000	13.355000	-12.675000	1.160640
-1.027000	12.417000	-9.829000	1.234880
-0.060000	13.282000	-12.680000	1.284550
-0.904000	12.891000	-12.262000	1.832270
-0.840000	13.025000	-12.465000	0.954663
-0.997000	12.739000	-11.731000	1.297750
-1.004000	12.706000	-11.853000	1.901600
-0.950000	12.770000	-12.073000	2.458480
0.393000	11.426000	-9.438000	0.792122
-0.976000	12.942000	-11.229000	2.279830
-1.043000	12.762000	-11.541000	1.296770
0.661000	13.663000	-10.555000	1.612300
0.762000	13.525000	-11.975000	2.477330
1.300000	11.681000	-9.894000	1.447000
1.297000	12.781000	-10.154000	1.851080
1.353000	11.955000	-9.977000	1.670630
0.983000	13.468000	-10.392000	1.517280
1.093000	13.355000	-10.389000	1.681560
1.073000	11.342000	-9.677000	0.967998
1.344000	12.381000	-10.065000	1.957720
1.377000	12.223000	-10.079000	2.062410
0.820000	13.617000	-10.538000	1.544490
1.344000	12.632000	-10.170000	2.049070
1.203000	13.163000	-10.252000	1.410940
1.273000	13.020000	-10.260000	1.642140
0.900000	13.502000	-12.033000	2.167730
1.014000	13.473000	-12.165000	1.773820
1.057000	13.462000	-12.303000	1.431370
1.022000	13.464000	-12.433000	1.150020
0.695000	13.648000	-10.824000	2.738760
0.786000	13.608000	-10.939000	3.262740
0.990000	13.460000	-12.585000	0.830610
0.848000	13.465000	-12.640000	0.684242
0.798000	13.604000	-11.165000	3.078470
0.862000	13.582000	-11.290000	2.821450
0.836000	13.575000	-11.529000	2.702950
0.805000	13.558000	-11.765000	2.500190
0.902000	13.544000	-11.656000	2.641420
1.241000	11.440000	-9.831000	1.236150
-1.103000	12.722000	-10.336000	2.178510
-1.044000	12.933000	-10.866000	2.260050
0.712000	13.449000	-12.702000	0.605779
-0.179000	13.209000	-12.762000	1.254770
-0.296000	13.125000	-12.839000	1.237760
-0.790000	12.998000	-12.620000	0.986039
-0.700000	12.979000	-12.764000	1.061090
-0.552000	13.014000	-12.837000	1.147120
-0.997000	12.283000	-9.765000	1.267760
-0.954000	12.155000	-9.704000	1.206000
-0.895000	12.033000	-9.642000	1.050130
-0.823000	11.907000	-9.594000	0.899671
-0.743000	11.783000	-9.551000	0.726578
-0.649000	11.663000	-9.514000	0.547475
0.582000	13.414000	-12.770000	0.590384
0.334000	13.357000	-12.754000	0.971214
0.147000	11.501000	-9.415000	0.610552
0.722000	11.218000	-9.528000	0.886160
0.861000	11.219000	-9.575000	0.896797
0.997000	11.209000	-9.643000	0.904398
-1.114000	12.406000	-9.960000	1.328400
-0.537000	11.552000	-9.482000	0.365484
-1.063000	12.700000	-11.641000	1.286790
-1.083000	12.627000	-11.762000	1.831690
0.080000	13.288000	-12.750000	1.261260
-0.916000	12.903000	-12.412000	1.336160
-1.018000	12.667000	-11.995000	2.601160
-1.084000	12.856000	-10.617000	2.269850
-1.030000	12.925000	-11.097000	2.280120
0.242000	11.385000	-9.426000	0.641815
-0.084000	11.519000	-9.416000	0.339214
0.491000	11.304000	-9.457000	0.773253
-1.040000	12.849000	-11.333000	1.918130
-0.971000	12.766000	-12.215000	2.321410
-1.098000	12.752000	-11.428000	1.589330
-1.169000	12.500000	-10.177000	1.761400
-0.307000	11.476000	-9.439000	0.129287
0.760000	13.640000	-10.683000	2.033850
0.860000	13.529000	-11.890000	2.377800
1.404000	12.061000	-10.094000	2.121980
0.848000	13.598000	-10.808000	2.653280
1.326000	12.873000	-10.277000	1.983330
1.373000	12.725000	-10.293000	2.244770
1.172000	13.440000	-12.224000	1.561290
1.184000	13.439000	-12.385000	1.264100
1.137000	13.444000	-12.541000	0.992891
1.366000	11.788000	-9.999000	1.739970
1.422000	11.897000	-10.112000	2.185980
0.952000	13.526000	-10.530000	1.689790
1.071000	13.420000	-10.526000	1.926510
1.190000	13.231000	-10.390000	1.852740
1.278000	13.101000	-10.394000	2.007320
1.384000	12.479000	-10.185000	2.230580
0.872000	13.572000	-11.054000	3.282340
1.420000	12.324000	-10.200000	2.374710
1.304000	11.513000	-9.925000	1.534290
0.960000	13.514000	-11.783000	2.481780
0.931000	13.556000	-11.418000	2.610450
0.998000	13.522000	-11.546000	2.584040
0.943000	13.547000	-11.177000	3.049380
1.192000	11.321000	-9.789000	1.126200
1.047000	13.476000	-12.029000	2.030260
0.964000	13.453000	-12.738000	0.596310
-1.073000	12.906000	-10.985000	2.148610
0.028000	11.467000	-9.414000	0.439517
-1.146000	12.737000	-10.517000	2.222580
-1.094000	12.275000	-9.877000	1.284570
-1.060000	12.142000	-9.805000	1.208500
-1.186000	12.557000	-10.297000	1.961940
-1.012000	12.011000	-9.737000	1.070970
-0.950000	11.882000	-9.676000	0.899222
-0.873000	11.755000	-9.626000	0.746900
-0.781000	11.630000	-9.588000	0.591266
-0.679000	11.511000	-9.553000	0.418987
-0.037000	13.215000	-12.827000	1.307720
-0.152000	13.130000	-12.900000	1.343430
0.582000	11.190000	-9.496000	0.823669
-0.411000	13.028000	-12.905000	1.268460
-1.181000	12.389000	-10.097000	1.528860
0.216000	13.293000	-12.826000	1.133680
-1.097000	12.577000	-11.902000	2.562360
0.339000	11.262000	-9.444000	0.675870
0.438000	11.139000	-9.478000	0.732656
-1.123000	12.845000	-10.771000	2.155420
-0.429000	11.440000	-9.468000	0.180412
-0.891000	12.893000	-12.568000	1.192530
-0.835000	12.875000	-12.721000	1.201910
1.124000	11.190000	-9.734000	0.983275
0.460000	13.365000	-12.839000	0.723343
0.915000	11.078000	-9.625000	0.899511
0.781000	11.086000	-9.571000	0.898223
0.830000	13.444000	-12.796000	0.476020
0.702000	13.420000	-12.860000	0.420511
-1.099000	12.837000	-11.197000	2.070230
-1.156000	12.734000	-11.295000	1.835330
-1.135000	12.654000	-11.531000	1.454260
-1.162000	12.568000	-11.651000	1.735140
-0.980000	12.774000	-12.359000	1.883300
-1.034000	12.650000	-12.145000	2.768360
0.092000	11.352000	-9.421000	0.467235
-0.189000	11.417000	-9.428000	0.149087
-0.640000	12.910000	-12.886000	1.239620
0.905000	13.568000	-10.671000	2.125240
1.006000	13.491000	-11.913000	2.279460
1.373000	11.618000	-10.026000	1.889380
1.447000	12.165000	-10.215000	2.503160
1.469000	12.003000	-10.231000	2.628830
0.932000	13.550000	-10.931000	3.130620
1.008000	13.506000	-11.057000	3.267680
1.279000	13.410000	-12.514000	1.154190
1.309000	13.406000	-12.280000	1.425630
1.320000	13.399000	-12.400000	1.309920
1.036000	13.476000	-10.665000	2.285690
1.166000	13.442000	-12.083000	1.835370
1.154000	13.448000	-11.942000	2.088340
1.417000	12.575000	-10.308000	2.451720
1.103000	13.442000	-12.691000	0.773532
1.436000	11.730000	-10.133000	2.251950
1.340000	12.959000	-10.406000	2.241210
1.454000	12.421000	-10.323000	2.634940
1.396000	12.814000	-10.419000	2.459060
1.177000	13.303000	-10.526000	2.176780
1.264000	13.172000	-10.530000	2.421000
1.015000	13.522000	-11.303000	2.677180
1.062000	13.489000	-11.676000	2.513420
1.089000	13.493000	-11.432000	2.482070
1.306000	11.325000	-9.930000	1.458640
-0.055000	11.363000	-9.422000	0.306386
-1.151000	12.828000	-10.918000	2.027720
-1.148000	12.828000	-11.061000	1.953450
0.663000	11.094000	-9.534000	0.869167
-1.206000	12.605000	-10.443000	2.101290
-1.170000	12.262000	-10.009000	1.406150
-1.146000	12.130000	-9.928000	1.280130
-1.107000	11.997000	-9.856000	1.143320
-0.267000	13.040000	-12.970000	1.380090
-0.758000	12.838000	-12.860000	1.270290
1.237000	11.174000	-9.850000	1.195860
-0.569000	11.394000	-9.524000	0.248941
0.346000	13.299000	-12.907000	0.919604
-1.197000	12.627000	-11.401000	1.641000
-1.226000	12.522000	-11.521000	1.760470
0.181000	11.227000	-9.436000	0.535328
0.285000	11.099000	-9.464000	0.616408
-0.523000	12.921000	-12.962000	1.353360
-1.119000	12.531000	-12.064000	2.991330
-1.052000	11.864000	-9.790000	0.976435
-0.984000	11.733000	-9.733000	0.805711
-0.905000	11.605000	-9.682000	0.638465
-1.044000	12.649000	-12.299000	2.491000
0.102000	13.218000	-12.897000	1.251250
-0.011000	13.136000	-12.968000	1.313990
-0.812000	11.480000	-9.639000	0.477579
-1.189000	12.739000	-10.679000	2.125760
0.818000	13.430000	-12.952000	0.291616
0.944000	13.443000	-12.890000	0.409873
-0.978000	12.775000	-12.512000	1.545910
0.581000	13.378000	-12.928000	0.466069
-1.210000	12.715000	-11.150000	1.868910
-0.943000	12.763000	-12.667000	1.420620
-1.179000	12.499000	-11.788000	2.390160
1.045000	11.059000	-9.695000	0.921129
0.546000	11.032000	-9.519000	0.810163
-1.237000	12.391000	-10.251000	1.755150
-0.311000	11.329000	-9.455000	0.065458
0.830000	10.955000	-9.618000	0.902513
0.985000	13.514000	-10.801000	2.779030
1.115000	13.463000	-11.808000	2.376080
1.379000	11.440000	-10.052000	1.961110
1.441000	11.562000	-10.160000	2.326570
1.441000	12.666000	-10.434000	2.700890
1.483000	12.515000	-10.448000	2.881730
1.485000	11.840000	-10.248000	2.704750
1.485000	12.265000	-10.338000	2.799280
1.510000	12.106000	-10.352000	2.952250
1.063000	13.464000	-10.930000	3.246520
1.074000	13.431000	-12.837000	0.600704
1.343000	13.038000	-10.537000	2.599420
1.149000	13.364000	-10.663000	2.458440
1.254000	13.245000	-10.663000	2.589280
1.244000	13.412000	-12.653000	0.967316
1.410000	12.898000	-10.547000	2.748400
1.308000	13.406000	-12.138000	1.600160
1.296000	13.405000	-11.992000	1.798990
1.084000	13.472000	-11.184000	2.985670
1.415000	13.367000	-12.481000	1.303290
1.430000	13.363000	-12.344000	1.404600
1.160000	13.461000	-11.565000	2.382590
1.227000	13.427000	-11.701000	2.266640
1.161000	13.441000	-11.313000	2.665480
-1.106000	12.530000	-12.232000	2.999370
-1.168000	12.435000	-12.178000	3.286820
-1.224000	12.727000	-10.837000	1.999980
-1.241000	12.716000	-10.998000	1.865940
-0.169000	11.255000	-9.440000	0.230838
0.004000	11.202000	-9.437000	0.395251
0.681000	10.953000	-9.570000	0.867957
-1.232000	12.251000	-10.152000	1.567300
-1.215000	12.118000	-10.065000	1.411490
-0.709000	11.359000	-9.602000	0.315688
-1.255000	12.600000	-11.256000	1.807330
-1.284000	12.488000	-11.376000	1.806820
-1.260000	12.414000	-11.659000	2.177460
-1.310000	12.384000	-11.498000	1.955200
-1.187000	11.984000	-9.986000	1.248800
-1.145000	11.850000	-9.913000	1.051310
-1.187000	12.443000	-11.936000	2.970770
-1.210000	12.382000	-12.073000	3.311870
-1.238000	12.622000	-10.596000	2.111550
-0.451000	11.276000	-9.501000	0.083844
-1.259000	12.460000	-10.396000	1.930740
-0.123000	13.047000	-13.035000	1.392030
-0.379000	12.937000	-13.030000	1.449730
0.126000	11.076000	-9.458000	0.508397
-1.087000	11.717000	-9.850000	0.856887
-1.017000	11.585000	-9.793000	0.684838
-0.885000	12.742000	-12.816000	1.378250
1.160000	11.039000	-9.795000	1.045630
-0.934000	11.456000	-9.742000	0.523013
0.236000	13.220000	-12.973000	1.081480
0.125000	13.142000	-13.042000	1.187050
0.934000	13.424000	-13.043000	0.269383
1.054000	13.426000	-12.981000	0.426766
-1.044000	12.647000	-12.451000	2.085980
-1.027000	12.640000	-12.605000	1.832130
0.393000	10.959000	-9.504000	0.693559
-1.175000	12.392000	-12.319000	3.340380
-1.226000	12.317000	-12.202000	3.603390
-0.651000	12.798000	-13.001000	1.435350
0.959000	10.935000	-9.679000	0.901570
0.469000	13.308000	-12.993000	0.613952
0.698000	13.388000	-13.018000	0.266118
0.761000	10.850000	-9.625000	0.894467
1.327000	11.146000	-9.976000	1.461340
-1.238000	12.262000	-12.310000	3.724120
1.110000	13.416000	-10.798000	2.943260
1.272000	13.408000	-11.843000	2.056680
1.445000	13.356000	-12.204000	1.468250
1.444000	13.355000	-12.055000	1.552360
1.419000	13.356000	-11.899000	1.686710
1.530000	11.945000	-10.367000	3.059610
1.398000	11.253000	-10.094000	1.902400
1.452000	11.395000	-10.193000	2.337600
1.141000	13.419000	-11.059000	3.251600
1.218000	13.380000	-11.189000	2.956580
1.342000	13.115000	-10.668000	2.767730
1.409000	12.976000	-10.678000	3.040150
1.210000	13.409000	-12.797000	0.809810
1.223000	13.306000	-10.799000	3.040530
1.460000	12.752000	-10.561000	2.976250
1.504000	12.604000	-10.575000	3.215410
1.178000	13.406000	-12.938000	0.639886
1.518000	12.362000	-10.462000	3.060320
1.496000	11.676000	-10.270000	2.715570
1.547000	12.206000	-10.475000	3.217850
1.236000	13.405000	-11.445000	2.502410
1.312000	13.368000	-11.581000	2.302450
1.388000	13.372000	-12.617000	1.160360
1.522000	13.325000	-12.425000	1.389370
-1.107000	12.520000	-12.386000	2.735790
-0.008000	11.048000	-9.460000	0.434545
-0.141000	11.096000	-9.465000	0.337189
-0.312000	11.151000	-9.479000	0.189182
-1.280000	12.616000	-10.748000	2.005910
-1.313000	12.596000	-10.907000	1.882760
-1.312000	12.571000	-11.089000	1.827360
-1.295000	12.333000	-10.371000	1.833670
-1.291000	12.232000	-10.290000	1.714170
-1.280000	12.105000	-10.205000	1.531560
-1.257000	11.973000	-10.124000	1.342580
-0.804000	12.706000	-12.953000	1.486180
0.220000	10.945000	-9.486000	0.597549
-0.234000	12.952000	-13.100000	1.463660
0.014000	13.059000	-13.110000	1.265660
-0.095000	12.967000	-13.174000	1.355280
-0.595000	11.241000	-9.573000	0.162873
-1.264000	12.357000	-11.823000	2.778170
-1.270000	12.300000	-11.969000	3.254970
-0.492000	12.827000	-13.088000	1.528340
-1.278000	12.238000	-12.105000	3.647740
-1.340000	12.451000	-11.229000	1.827340
-1.285000	12.181000	-12.234000	3.872300
-0.838000	11.331000	-9.698000	0.375495
-1.224000	11.839000	-10.047000	1.131270
-1.180000	11.704000	-9.975000	0.897876
-1.120000	11.571000	-9.912000	0.703856
-1.092000	12.512000	-12.541000	2.458260
-1.367000	12.340000	-11.353000	1.809330
1.261000	11.015000	-9.907000	1.219320
-0.987000	12.625000	-12.758000	1.628870
0.360000	13.232000	-13.059000	0.787873
0.537000	10.872000	-9.555000	0.806305
0.811000	13.408000	-13.110000	0.164117
0.583000	13.331000	-13.085000	0.319390
-1.286000	12.494000	-10.536000	2.033030
0.251000	13.156000	-13.126000	0.931550
0.870000	10.821000	-9.674000	0.912221
-1.044000	11.439000	-9.858000	0.560323
-1.220000	12.261000	-12.425000	3.563490
-1.284000	12.144000	-12.366000	3.742850
0.656000	10.790000	-9.609000	0.856254
1.078000	10.910000	-9.761000	0.961466
-1.341000	12.288000	-11.599000	2.153270
1.055000	13.411000	-13.128000	0.365528
1.183000	13.361000	-10.931000	3.380310
1.399000	13.341000	-11.731000	1.931490
1.506000	11.514000	-10.297000	2.703990
1.350000	13.380000	-12.763000	0.995184
1.544000	12.454000	-10.588000	3.332800
1.579000	12.301000	-10.600000	3.413890
1.322000	13.183000	-10.802000	3.113950
1.405000	13.052000	-10.809000	3.298750
1.544000	11.784000	-10.385000	3.096980
1.570000	12.047000	-10.489000	3.338470
1.561000	13.310000	-12.297000	1.399450
1.311000	13.379000	-12.909000	0.856106
1.295000	13.340000	-11.320000	2.732310
1.469000	12.834000	-10.689000	3.289800
1.520000	12.689000	-10.702000	3.455860
1.260000	13.314000	-11.063000	3.287690
1.597000	13.286000	-12.132000	1.403830
1.563000	13.288000	-11.962000	1.475720
1.372000	13.299000	-11.452000	2.558190
1.151000	13.403000	-13.062000	0.513302
1.539000	13.318000	-12.566000	1.318600
1.390000	11.093000	-10.087000	1.671160
1.348000	10.984000	-10.023000	1.363770
1.478000	11.242000	-10.248000	2.277260
-1.155000	12.385000	-12.477000	3.099650
-0.477000	11.126000	-9.553000	0.118431
-0.378000	11.019000	-9.550000	0.224645
-0.248000	10.978000	-9.515000	0.310982
-0.093000	10.939000	-9.494000	0.411235
0.065000	10.925000	-9.485000	0.497233
-1.309000	12.519000	-10.663000	2.033280
-1.332000	12.356000	-10.496000	1.873010
-1.347000	12.221000	-10.434000	1.774380
-1.340000	12.092000	-10.349000	1.653130
-1.325000	11.961000	-10.265000	1.421360
-1.297000	11.828000	-10.185000	1.193900
-1.363000	12.468000	-10.793000	1.867780
-1.380000	12.456000	-10.965000	1.803900
-1.385000	12.414000	-11.102000	1.769520
-0.730000	11.212000	-9.666000	0.237005
-0.726000	12.660000	-13.082000	1.625950
-0.589000	12.711000	-13.147000	1.606280
-1.260000	11.694000	-10.109000	0.948286
-1.214000	11.559000	-10.038000	0.724648
-1.145000	11.426000	-9.982000	0.587641
0.144000	13.072000	-13.192000	1.051070
0.037000	12.984000	-13.256000	1.155170
-1.391000	12.238000	-11.481000	1.887970
-0.345000	12.851000	-13.162000	1.531120
-1.334000	12.255000	-11.726000	2.465000
-1.329000	12.206000	-11.871000	3.091650
-0.928000	12.602000	-12.903000	1.573610
-1.067000	12.500000	-12.694000	2.076860
0.294000	10.834000	-9.521000	0.647505
0.413000	10.783000	-9.555000	0.717870
1.189000	10.884000	-9.858000	1.071000
-1.201000	12.245000	-12.567000	3.225400
-1.265000	12.119000	-12.503000	3.529730
0.473000	13.261000	-13.153000	0.447550
0.369000	13.178000	-13.217000	0.599956
-0.956000	11.311000	-9.811000	0.429773
0.991000	10.788000	-9.738000	0.905797
0.934000	13.406000	-13.196000	0.229264
1.285000	10.859000	-9.968000	1.155810
-0.202000	12.873000	-13.237000	1.450420
0.536000	10.708000	-9.605000	0.797092
-1.332000	12.150000	-12.012000	3.661950
-1.333000	12.088000	-12.147000	4.019880
-1.423000	12.286000	-11.199000	1.681330
0.693000	13.366000	-13.180000	0.117724
0.770000	10.722000	-9.669000	0.897810
-1.333000	12.037000	-12.284000	3.958080
-1.240000	12.098000	-12.647000	3.176480
1.198000	13.381000	-13.195000	0.599380
1.268000	13.378000	-13.053000	0.738991
1.293000	13.247000	-10.934000	3.482090
1.525000	13.289000	-11.826000	1.574130
1.650000	13.268000	-12.432000	1.399090
1.690000	13.240000	-12.273000	1.387750
1.590000	11.887000	-10.504000	3.391660
1.492000	13.335000	-12.725000	1.179430
1.452000	13.346000	-12.876000	1.054580
1.339000	13.270000	-11.194000	2.997500
1.418000	13.227000	-11.324000	2.762690
1.520000	11.363000	-10.332000	2.658090
1.462000	13.270000	-11.584000	2.121030
1.565000	12.541000	-10.715000	3.606170
1.607000	12.391000	-10.726000	3.633310
1.453000	11.102000	-10.200000	1.919560
1.422000	10.963000	-10.150000	1.582990
1.610000	12.145000	-10.612000	3.484420
1.471000	12.912000	-10.819000	3.503870
1.535000	12.772000	-10.829000	3.585200
1.557000	11.623000	-10.407000	3.077990
1.367000	10.838000	-10.091000	1.288260
1.387000	13.121000	-10.939000	3.551530
1.562000	13.236000	-11.706000	1.648300
1.355000	13.348000	-13.173000	0.928089
1.698000	13.212000	-12.007000	1.358460
-1.137000	12.373000	-12.630000	2.663040
-1.358000	12.395000	-10.638000	1.897750
-0.615000	11.095000	-9.640000	0.123401
-0.497000	10.981000	-9.623000	0.163908
-0.357000	10.868000	-9.606000	0.274032
-0.188000	10.824000	-9.559000	0.379420
-0.022000	10.793000	-9.528000	0.462260
0.150000	10.782000	-9.527000	0.566538
-1.421000	12.352000	-10.878000	1.743980
-1.437000	12.292000	-11.017000	1.682590
1.063000	13.388000	-13.272000	0.398033
-1.400000	12.233000	-10.592000	1.737180
-1.395000	12.086000	-10.495000	1.705070
-1.384000	11.950000	-10.414000	1.527660
-1.363000	11.817000	-10.328000	1.256030
-1.331000	11.684000	-10.249000	0.993827
-0.450000	12.741000	-13.225000	1.631640
-0.307000	12.772000	-13.299000	1.561290
-0.856000	11.188000	-9.771000	0.307123
1.079000	13.357000	-13.422000	0.480040
1.178000	13.363000	-13.340000	0.610384
1.236000	13.328000	-13.480000	0.814230
0.891000	10.678000	-9.731000	0.885068
-1.436000	12.184000	-11.343000	1.711030
-0.851000	12.568000	-13.036000	1.728550
-1.174000	12.229000	-12.714000	2.731270
-1.404000	12.136000	-11.621000	2.022220
-1.383000	12.100000	-11.778000	2.727180
-1.028000	12.485000	-12.846000	1.797120
1.104000	10.759000	-9.826000	0.959185
0.288000	10.696000	-9.561000	0.633298
0.813000	13.377000	-13.268000	0.127739
0.264000	13.093000	-13.282000	0.745581
0.159000	13.007000	-13.346000	0.881181
-1.291000	11.550000	-10.175000	0.756830
-1.236000	11.415000	-10.111000	0.596551
-1.064000	11.296000	-9.932000	0.471732
-0.068000	12.893000	-13.318000	1.286940
0.584000	13.292000	-13.247000	0.163799
-1.370000	12.047000	-11.918000	3.645000
-1.322000	11.998000	-12.426000	3.709390
-1.299000	11.963000	-12.572000	3.486050
-1.367000	11.988000	-12.055000	4.318890
-1.367000	11.926000	-12.193000	4.328530
0.657000	10.637000	-9.663000	0.840962
0.410000	10.622000	-9.609000	0.717259
1.209000	10.733000	-9.930000	1.001550
0.479000	13.209000	-13.312000	0.301374
1.302000	10.711000	-10.044000	1.086000
1.094000	13.321000	-13.570000	0.583532
1.223000	13.309000	-13.649000	0.875900
-0.665000	12.606000	-13.196000	1.770940
-1.198000	12.078000	-12.793000	2.959750
1.489000	13.271000	-14.224000	3.858870
1.418000	13.259000	-14.046000	2.282400
1.555000	13.284000	-14.096000	3.067960
1.362000	13.222000	-14.180000	2.916880
1.334000	13.288000	-13.758000	1.299840
1.276000	13.246000	-13.921000	1.452650
1.210000	13.274000	-13.786000	0.990490
1.372000	13.206000	-14.316000	4.203820
1.305000	13.345000	-13.322000	0.872509
1.406000	13.346000	-13.025000	1.005550
1.367000	13.195000	-11.068000	3.371910
1.663000	13.199000	-11.844000	1.442310
1.441000	13.269000	-13.870000	1.820220
1.566000	11.466000	-10.435000	3.037140
1.674000	13.257000	-12.573000	1.389690
1.630000	13.277000	-12.698000	1.341810
1.535000	11.232000	-10.373000	2.588920
1.519000	11.107000	-10.336000	2.217880
1.493000	10.950000	-10.296000	1.813450
1.436000	10.824000	-10.218000	1.491770
1.363000	13.301000	-13.598000	1.193800
1.642000	12.239000	-10.737000	3.615540
1.503000	13.312000	-13.142000	1.222940
1.454000	13.316000	-13.291000	1.187350
1.604000	11.727000	-10.522000	3.379390
1.633000	11.987000	-10.624000	3.527230
1.563000	13.282000	-13.962000	2.329980
1.447000	13.148000	-11.198000	3.020300
1.587000	12.627000	-10.841000	3.680680
1.631000	12.479000	-10.853000	3.720470
1.501000	13.186000	-11.453000	2.442080
1.470000	12.990000	-10.946000	3.578220
1.599000	13.157000	-11.575000	1.834890
1.591000	13.297000	-12.844000	1.252980
1.753000	13.186000	-12.146000	1.373920
1.380000	10.697000	-10.169000	1.251920
1.542000	12.852000	-10.955000	3.604550
1.768000	13.126000	-11.923000	1.392890
1.761000	13.194000	-12.381000	1.456400
1.646000	13.309000	-14.193000	4.314530
-1.108000	12.359000	-12.783000	2.199010
0.941000	13.378000	-13.350000	0.262369
-1.416000	12.306000	-10.746000	1.754720
1.095000	13.292000	-13.724000	0.689393
-0.745000	11.070000	-9.741000	0.194925
-0.630000	10.954000	-9.714000	0.116884
-0.502000	10.852000	-9.705000	0.184611
-0.395000	10.755000	-9.707000	0.265652
-0.268000	10.716000	-9.659000	0.348477
-0.112000	10.678000	-9.611000	0.431273
0.044000	10.654000	-9.586000	0.518328
0.177000	10.640000	-9.587000	0.592137
1.265000	13.204000	-14.088000	2.028910
1.256000	13.164000	-14.239000	2.690050
-1.439000	12.083000	-10.619000	1.643810
-1.440000	11.938000	-10.572000	1.545870
-1.419000	11.804000	-10.472000	1.304570
-1.394000	11.672000	-10.392000	1.035590
-1.358000	11.541000	-10.314000	0.799118
-0.551000	12.611000	-13.293000	1.878060
-0.403000	12.665000	-13.360000	1.757930
-0.171000	12.797000	-13.378000	1.427270
-0.271000	12.702000	-13.438000	1.613490
0.955000	13.336000	-13.502000	0.353445
-1.457000	12.088000	-11.472000	1.594720
-1.459000	11.979000	-11.575000	1.655660
-1.429000	11.985000	-11.703000	2.227280
-1.127000	12.209000	-12.861000	2.610350
1.011000	10.640000	-9.806000	0.873805
1.125000	10.609000	-9.898000	0.881191
-0.773000	12.529000	-13.162000	1.884510
-1.408000	11.941000	-11.831000	3.123570
-1.393000	11.884000	-11.960000	4.158570
-1.387000	11.820000	-12.093000	4.663930
-0.961000	12.458000	-12.985000	1.896430
-1.261000	11.940000	-12.719000	3.352930
-1.139000	12.057000	-12.938000	3.091490
-1.210000	11.925000	-12.869000	3.223880
-1.360000	11.879000	-12.335000	3.970420
-1.342000	11.839000	-12.484000	3.699990
-1.459000	12.217000	-10.869000	1.685340
1.114000	13.240000	-13.869000	0.899314
1.226000	10.584000	-10.008000	0.918063
0.375000	13.123000	-13.377000	0.451573
0.273000	13.033000	-13.440000	0.602721
-0.972000	11.170000	-9.888000	0.369127
-1.313000	11.407000	-10.247000	0.614328
0.782000	10.578000	-9.725000	0.852670
0.056000	12.915000	-13.407000	1.035470
-1.161000	11.284000	-10.060000	0.514077
0.534000	10.551000	-9.665000	0.776185
0.696000	13.322000	-13.340000	0.052865
0.587000	13.244000	-13.408000	0.059623
-1.465000	12.174000	-11.105000	1.665690
-1.477000	12.111000	-11.220000	1.600030
0.275000	10.549000	-9.633000	0.662249
1.263000	13.128000	-14.386000	4.087770
1.367000	13.192000	-14.469000	6.182270
1.478000	13.270000	-14.397000	5.763960
1.609000	13.318000	-14.338000	5.766760
1.403000	13.309000	-13.443000	1.198610
1.550000	13.307000	-12.992000	1.235610
1.462000	13.068000	-11.073000	3.378450
1.649000	11.828000	-10.640000	3.549850
1.529000	13.103000	-11.327000	2.709390
1.619000	13.064000	-11.451000	2.206000
1.783000	13.182000	-12.516000	1.503790
1.762000	13.208000	-12.668000	1.457980
1.726000	13.231000	-12.812000	1.421630
1.576000	11.311000	-10.466000	2.961550
1.576000	11.146000	-10.486000	2.760220
1.550000	10.993000	-10.439000	2.330300
1.478000	13.285000	-13.710000	1.593050
1.591000	13.285000	-13.813000	1.904080
1.673000	12.329000	-10.863000	3.663410
1.557000	13.289000	-13.405000	1.436800
1.605000	13.287000	-13.256000	1.376790
1.602000	12.709000	-10.967000	3.602140
1.659000	12.565000	-10.976000	3.564930
1.673000	12.084000	-10.747000	3.558780
1.613000	11.568000	-10.545000	3.359360
1.306000	10.573000	-10.136000	1.064930
1.696000	13.121000	-11.697000	1.497310
1.682000	13.305000	-14.051000	2.988690
1.546000	12.933000	-11.080000	3.355320
1.816000	13.142000	-12.276000	1.471940
1.789000	13.071000	-11.810000	1.401330
1.822000	13.106000	-12.038000	1.362810
1.486000	10.805000	-10.332000	1.677000
1.437000	10.692000	-10.302000	1.490150
1.866000	13.020000	-11.928000	1.408180
1.790000	13.329000	-14.149000	4.092510
-1.050000	12.337000	-12.926000	2.204450
0.822000	13.336000	-13.425000	0.191345
-1.456000	12.154000	-10.731000	1.652090
-0.865000	11.049000	-9.852000	0.267164
-0.748000	10.936000	-9.827000	0.161874
0.126000	10.527000	-9.662000	0.589413
-0.031000	10.547000	-9.684000	0.510911
-0.622000	10.831000	-9.813000	0.100076
-0.493000	10.731000	-9.806000	0.196493
-0.188000	10.584000	-9.729000	0.427843
-0.349000	10.631000	-9.791000	0.318677
-0.682000	12.500000	-13.281000	2.176580
-0.884000	12.429000	-13.118000	2.127740
-0.800000	12.401000	-13.248000	2.410030
-1.390000	11.746000	-12.236000	4.383400
-1.372000	11.725000	-12.389000	3.810670
0.965000	13.290000	-13.653000	0.466624
0.979000	13.232000	-13.800000	0.606681
-1.462000	11.789000	-10.595000	1.309780
-1.450000	11.653000	-10.545000	1.065910
-1.415000	11.530000	-10.450000	0.827981
-1.062000	12.186000	-13.003000	2.864430
-1.459000	11.874000	-11.650000	1.808820
-1.438000	11.834000	-11.751000	2.471540
-1.416000	11.779000	-11.867000	3.552140
-1.396000	11.717000	-11.990000	4.591910
0.905000	10.532000	-9.797000	0.837880
1.136000	13.186000	-14.010000	1.306110
1.024000	10.493000	-9.882000	0.806215
1.132000	10.466000	-9.986000	0.811536
1.225000	10.449000	-10.107000	0.916333
-1.306000	11.784000	-12.637000	3.809410
-1.259000	11.786000	-12.795000	3.568080
-1.074000	11.157000	-10.014000	0.424605
-0.047000	12.822000	-13.467000	1.222040
-0.146000	12.726000	-13.524000	1.465950
0.707000	13.267000	-13.497000	0.154255
-0.477000	12.553000	-13.431000	2.161680
-0.355000	12.600000	-13.492000	1.950030
-1.477000	11.998000	-10.719000	1.534170
0.662000	10.488000	-9.728000	0.814159
-1.477000	12.126000	-10.984000	1.674410
-1.494000	12.032000	-11.098000	1.575730
1.143000	13.129000	-14.157000	1.735330
-1.378000	11.400000	-10.384000	0.646344
-1.489000	12.020000	-11.341000	1.438590
1.151000	13.080000	-14.305000	2.346270
-1.247000	11.274000	-10.193000	0.522630
0.488000	13.150000	-13.471000	0.212372
0.386000	13.058000	-13.534000	0.376108
0.397000	10.469000	-9.686000	0.721799
0.172000	12.940000	-13.501000	0.765230
-1.492000	11.922000	-11.454000	1.346720
-1.142000	11.901000	-13.013000	3.522460
1.265000	13.102000	-14.538000	6.669550
1.586000	13.328000	-14.491000	7.713460
1.463000	13.267000	-14.557000	8.113820
1.363000	13.177000	-14.622000	9.225290
1.755000	13.346000	-14.293000	5.749140
1.695000	13.261000	-12.958000	1.348580
1.652000	13.274000	-13.108000	1.358040
1.543000	13.018000	-11.203000	3.016900
1.514000	13.286000	-13.556000	1.502140
1.621000	11.410000	-10.572000	3.315470
1.712000	12.177000	-10.870000	3.542970
1.624000	11.253000	-10.600000	3.231780
1.697000	11.927000	-10.758000	3.491000
1.661000	11.669000	-10.659000	3.548540
1.709000	13.293000	-13.909000	2.199930
1.626000	13.280000	-13.663000	1.706340
1.757000	13.246000	-13.223000	1.476410
1.706000	13.270000	-13.369000	1.500950
1.703000	12.417000	-10.987000	3.565330
1.632000	12.973000	-11.328000	2.543560
1.374000	10.569000	-10.270000	1.285010
1.875000	13.118000	-12.635000	1.621180
1.851000	13.148000	-12.777000	1.611150
1.824000	13.313000	-14.005000	2.729780
1.863000	13.109000	-12.405000	1.583290
1.718000	13.030000	-11.569000	1.653450
1.810000	12.986000	-11.689000	1.425060
1.892000	12.937000	-11.811000	1.414680
1.876000	13.069000	-12.168000	1.457120
1.929000	12.984000	-12.055000	1.420050
1.621000	12.795000	-11.088000	3.242530
1.691000	12.655000	-11.094000	3.082320
1.528000	10.848000	-10.435000	2.026940
1.490000	10.707000	-10.433000	1.800890
1.590000	11.018000	-10.556000	2.808240
0.834000	13.281000	-13.577000	0.296291
-0.980000	12.313000	-13.064000	2.477530
-1.483000	12.062000	-10.852000	1.602140
-0.968000	11.038000	-9.981000	0.333300
-0.856000	10.923000	-9.952000	0.225782
-0.734000	10.816000	-9.931000	0.099596
-0.606000	10.716000	-9.918000	0.096767
-0.475000	10.624000	-9.911000	0.235084
0.237000	10.404000	-9.739000	0.675154
0.058000	10.426000	-9.767000	0.599342
-0.099000	10.466000	-9.811000	0.522450
0.999000	13.168000	-13.942000	0.823816
1.018000	13.104000	-14.083000	1.103340
0.790000	10.433000	-9.796000	0.799503
0.913000	10.388000	-9.877000	0.761843
0.533000	10.404000	-9.745000	0.768451
1.032000	13.043000	-14.226000	1.393160
-1.162000	11.148000	-10.150000	0.465718
0.848000	13.222000	-13.727000	0.414945
-1.068000	12.033000	-13.081000	3.547390
1.030000	10.351000	-9.968000	0.739428
-1.208000	11.769000	-12.938000	3.548730
-1.065000	11.869000	-13.163000	4.260730
-1.138000	11.744000	-13.072000	4.145360
-0.592000	12.471000	-13.398000	2.561340
-0.707000	12.371000	-13.371000	2.949300
-1.502000	11.968000	-10.970000	1.483610
-0.902000	12.290000	-13.200000	2.772760
0.602000	13.178000	-13.562000	0.111643
0.501000	13.082000	-13.625000	0.208081
1.300000	10.445000	-10.240000	1.116760
-1.487000	11.849000	-10.706000	1.383460
-1.486000	11.698000	-10.692000	1.163470
-1.508000	11.946000	-11.215000	1.349500
-1.513000	11.851000	-11.331000	1.178680
-1.482000	11.821000	-11.554000	1.483970
-1.452000	11.737000	-11.657000	1.954050
-1.421000	11.677000	-11.769000	2.965290
-1.390000	11.618000	-11.887000	4.282310
-1.377000	11.648000	-12.113000	5.270330
-1.368000	11.552000	-12.006000	5.342580
0.286000	12.963000	-13.595000	0.548558
0.071000	12.846000	-13.560000	0.960284
-0.029000	12.748000	-13.616000	1.250140
-0.244000	10.510000	-9.863000	0.431069
-1.322000	11.268000	-10.331000	0.533508
1.128000	10.333000	-10.088000	0.817244
-0.240000	12.627000	-13.576000	1.832430
-1.449000	11.511000	-10.568000	0.864197
-1.423000	11.395000	-10.521000	0.698179
1.158000	13.040000	-14.454000	4.046030
-1.344000	11.672000	-12.521000	4.029010
-1.375000	11.617000	-12.318000	4.158590
-0.421000	12.509000	-13.542000	2.421920
-1.286000	11.663000	-12.736000	3.909480
1.266000	13.082000	-14.692000	11.212100
1.347000	13.166000	-14.756000	12.513300
0.923000	12.556000	-16.119000	3.126980
0.852000	12.556000	-15.983000	4.571700
0.948000	12.643000	-16.030000	3.792530
0.903000	12.664000	-15.901000	4.924360
0.858000	12.679000	-15.752000	6.254840
0.970000	12.774000	-15.826000	5.175840
0.932000	12.788000	-15.665000	6.934270
0.884000	12.444000	-16.204000	2.712330
0.908000	12.797000	-15.486000	8.854720
0.977000	12.865000	-15.347000	11.483500
1.013000	12.902000	-15.463000	9.438920
1.015000	12.744000	-15.981000	3.905830
1.048000	12.677000	-16.145000	2.688660
1.446000	13.269000	-14.726000	10.587500
1.562000	13.342000	-14.639000	9.422780
1.720000	13.372000	-14.438000	7.305020
1.020000	12.888000	-15.592000	7.729510
1.048000	12.880000	-15.746000	5.958000
1.084000	12.967000	-15.370000	11.533000
1.053000	12.932000	-15.248000	13.505100
1.237000	13.069000	-14.971000	17.754900
1.202000	13.049000	-15.078000	17.454300
1.153000	12.982000	-14.938000	17.791300
1.900000	13.363000	-14.247000	5.287230
1.664000	13.274000	-13.516000	1.591740
1.628000	12.881000	-11.210000	2.939570
1.825000	13.182000	-12.925000	1.535420
1.800000	13.220000	-13.075000	1.420430
1.895000	13.087000	-12.518000	1.683900
1.711000	11.768000	-10.774000	3.495830
1.667000	11.511000	-10.683000	3.539080
1.671000	11.353000	-10.710000	3.488460
1.741000	13.285000	-13.765000	1.809020
1.857000	13.299000	-13.862000	1.928690
1.725000	12.931000	-11.450000	1.989060
1.821000	12.890000	-11.569000	1.542650
1.908000	12.844000	-11.693000	1.401580
1.963000	12.891000	-11.940000	1.455590
1.745000	12.266000	-10.996000	3.472380
1.707000	12.742000	-11.216000	2.763620
1.437000	10.577000	-10.408000	1.557650
1.848000	13.229000	-13.340000	1.477820
1.810000	13.261000	-13.479000	1.485960
1.741000	12.022000	-10.879000	3.412510
1.626000	11.104000	-10.638000	3.140600
1.980000	12.795000	-11.823000	1.476480
1.928000	13.031000	-12.304000	1.598590
1.980000	12.943000	-12.195000	1.599020
1.937000	13.332000	-14.104000	3.695350
1.737000	12.505000	-11.108000	3.151500
1.576000	10.889000	-10.558000	2.514520
1.542000	10.743000	-10.565000	2.270400
1.964000	13.048000	-12.738000	1.790470
1.978000	13.007000	-12.592000	1.817900
0.719000	13.206000	-13.650000	0.265409
-1.503000	11.907000	-10.839000	1.377000
-0.988000	12.166000	-13.141000	3.259560
-0.363000	10.547000	-9.917000	0.344782
-1.063000	11.028000	-10.113000	0.385337
-0.953000	10.914000	-10.083000	0.290170
-0.836000	10.805000	-10.057000	0.172932
-0.710000	10.705000	-10.040000	0.026976
-1.242000	11.618000	-12.860000	3.946880
-1.182000	11.619000	-12.996000	4.275070
-0.819000	12.267000	-13.334000	3.216640
-0.515000	12.437000	-13.525000	2.857480
-0.622000	12.344000	-13.502000	3.387850
0.867000	13.152000	-13.871000	0.556969
0.889000	13.081000	-14.012000	0.728862
0.910000	13.009000	-14.150000	0.951153
0.132000	10.309000	-9.855000	0.666321
-0.021000	10.345000	-9.891000	0.577658
-0.578000	10.610000	-10.031000	0.141634
0.185000	12.868000	-13.655000	0.746349
0.083000	12.773000	-13.713000	1.026520
0.796000	12.567000	-15.842000	5.872120
1.046000	12.988000	-14.372000	1.861720
0.665000	10.346000	-9.812000	0.787330
0.399000	10.328000	-9.778000	0.714419
0.819000	12.686000	-15.591000	7.790390
-1.509000	11.752000	-10.825000	1.179300
-1.492000	11.755000	-11.440000	1.255890
-1.463000	11.662000	-11.549000	1.550260
-1.424000	11.579000	-11.662000	2.281340
-1.384000	11.518000	-11.780000	3.640280
1.368000	10.449000	-10.378000	1.328300
-1.353000	11.459000	-11.902000	4.847130
-1.243000	11.140000	-10.287000	0.473330
1.165000	13.008000	-14.608000	8.332670
1.059000	12.942000	-14.521000	4.902070
0.619000	13.106000	-13.712000	0.231703
-0.330000	12.527000	-13.622000	2.369070
-1.514000	11.874000	-11.088000	1.263860
-1.521000	11.780000	-11.205000	1.064300
-1.473000	11.556000	-10.677000	0.975919
-1.452000	11.413000	-10.657000	0.760557
-0.990000	12.020000	-13.220000	4.042650
0.794000	10.290000	-9.880000	0.723830
0.401000	12.985000	-13.686000	0.392607
-1.312000	11.595000	-12.637000	4.099800
0.915000	10.249000	-9.969000	0.689074
1.023000	10.223000	-10.077000	0.733474
-1.376000	11.267000	-10.473000	0.572387
-0.164000	10.397000	-9.949000	0.497520
-0.128000	12.650000	-13.670000	1.689930
0.871000	12.762000	-15.311000	12.224000
0.960000	12.844000	-15.198000	14.294000
1.212000	10.326000	-10.217000	0.975352
-0.980000	11.888000	-13.304000	4.865250
-1.019000	11.771000	-13.267000	5.229730
-1.074000	11.693000	-13.193000	5.013060
-0.444000	10.522000	-10.029000	0.289868
-1.363000	11.562000	-12.222000	5.100920
-1.344000	11.478000	-12.119000	5.927350
0.814000	12.449000	-16.073000	4.099080
-1.356000	11.564000	-12.425000	4.232910
-0.087000	10.277000	-10.021000	0.555467
1.270000	13.090000	-14.858000	15.620100
-0.532000	12.320000	-13.635000	3.830980
1.079000	12.934000	-15.103000	16.563600
1.163000	13.034000	-15.242000	14.552600
1.383000	13.216000	-14.875000	14.111700
1.316000	13.158000	-15.015000	16.462100
1.106000	12.985000	-15.514000	9.011990
1.083000	12.864000	-15.906000	4.187920
1.130000	12.821000	-16.064000	3.160240
1.864000	13.394000	-14.392000	7.044190
1.689000	13.398000	-14.585000	8.588960
1.126000	12.987000	-15.665000	7.039700
1.549000	13.359000	-14.766000	10.352900
2.048000	13.359000	-14.203000	4.796970
1.775000	13.273000	-13.621000	1.614850
1.719000	12.834000	-11.334000	2.402580
1.968000	13.000000	-12.447000	1.757360
1.941000	13.086000	-12.887000	1.745220
1.933000	13.141000	-13.037000	1.526960
1.915000	13.180000	-13.199000	1.486440
1.781000	12.113000	-11.002000	3.322960
1.673000	11.198000	-10.742000	3.424000
1.761000	11.865000	-10.891000	3.341710
1.719000	11.610000	-10.795000	3.505230
2.025000	12.902000	-12.347000	1.819850
2.024000	12.850000	-12.077000	1.553650
2.044000	12.749000	-11.960000	1.591310
1.773000	12.597000	-11.225000	2.670860
1.972000	13.312000	-13.960000	2.366310
1.494000	10.600000	-10.551000	1.941100
1.813000	12.788000	-11.455000	1.871980
1.910000	12.743000	-11.575000	1.477500
1.993000	12.695000	-11.704000	1.408390
1.890000	13.283000	-13.721000	1.542260
1.723000	11.452000	-10.820000	3.477180
1.622000	10.955000	-10.672000	2.978500
1.780000	12.355000	-11.119000	3.186220
2.058000	12.646000	-11.841000	1.565110
1.971000	13.199000	-13.330000	1.289020
1.950000	13.244000	-13.446000	1.200480
1.595000	10.802000	-10.692000	2.812320
2.059000	12.925000	-12.697000	2.007740
-0.427000	12.423000	-13.642000	3.117760
1.168000	12.990000	-14.768000	14.038800
-0.909000	12.149000	-13.278000	3.652020
0.741000	13.130000	-13.794000	0.383189
-1.523000	11.810000	-10.958000	1.166170
-0.305000	10.449000	-10.004000	0.404641
0.786000	12.677000	-15.425000	9.941180
-1.145000	11.022000	-10.251000	0.418192
-1.041000	10.907000	-10.217000	0.331863
-0.928000	10.798000	-10.189000	0.234432
-0.808000	10.694000	-10.166000	0.110741
-0.679000	10.599000	-10.152000	0.064724
0.278000	10.263000	-9.844000	0.688655
-0.542000	10.508000	-10.147000	0.208454
-1.500000	11.685000	-11.318000	1.062740
-1.469000	11.590000	-11.430000	1.202380
-1.428000	11.498000	-11.543000	1.578510
-1.374000	11.406000	-11.663000	2.668540
-1.337000	11.368000	-11.801000	4.060390
-0.731000	12.243000	-13.467000	3.780950
-0.641000	12.216000	-13.605000	4.425530
1.287000	10.326000	-10.352000	1.144530
0.538000	10.268000	-9.841000	0.760813
0.668000	10.209000	-9.904000	0.700694
0.796000	10.155000	-9.978000	0.640435
0.926000	12.949000	-14.295000	1.027070
0.940000	12.895000	-14.441000	1.764700
-1.414000	11.279000	-10.617000	0.615204
-1.495000	11.601000	-10.810000	1.027570
-1.472000	11.452000	-10.789000	0.842071
1.430000	10.463000	-10.518000	1.613120
0.520000	13.005000	-13.773000	0.310771
-1.518000	11.714000	-11.075000	1.016020
0.748000	12.574000	-15.690000	7.143630
-0.224000	12.545000	-13.714000	2.326510
0.912000	10.116000	-10.071000	0.642997
1.061000	12.914000	-14.676000	11.085700
0.761000	13.057000	-13.937000	0.511971
-0.910000	12.011000	-13.358000	4.578460
-1.276000	11.513000	-12.750000	4.129080
0.052000	10.227000	-9.975000	0.616113
0.301000	12.887000	-13.746000	0.621215
0.200000	12.790000	-13.805000	0.917203
1.041000	12.887000	-14.965000	18.408300
0.952000	12.822000	-15.050000	17.437200
0.780000	12.334000	-16.163000	3.753250
1.118000	10.210000	-10.198000	0.858712
0.854000	12.736000	-15.146000	15.906900
-1.122000	11.582000	-13.117000	4.998640
-0.229000	10.332000	-10.100000	0.469981
0.748000	12.453000	-15.934000	5.600350
-0.959000	11.752000	-13.377000	6.032110
-1.010000	11.640000	-13.311000	6.056100
0.785000	12.980000	-14.076000	0.753839
-0.016000	12.671000	-13.766000	1.491390
-1.313000	11.136000	-10.428000	0.483835
-1.325000	11.390000	-12.017000	5.893370
-1.330000	11.498000	-12.537000	4.357090
-1.347000	11.472000	-12.327000	4.758130
-1.326000	11.394000	-12.228000	5.596860
-0.133000	10.221000	-10.129000	0.516074
-1.203000	11.505000	-12.941000	4.506180
-0.430000	12.319000	-13.760000	4.214940
1.278000	13.136000	-15.174000	16.371000
1.827000	13.437000	-14.537000	8.234380
1.159000	12.977000	-15.821000	5.300960
1.203000	12.950000	-15.978000	3.904610
1.491000	13.328000	-14.876000	12.031800
1.434000	13.287000	-15.010000	14.816900
1.184000	13.065000	-15.415000	11.157100
2.012000	13.399000	-14.347000	6.631050
1.206000	13.083000	-15.574000	8.502880
2.086000	13.323000	-14.060000	3.229120
1.655000	13.423000	-14.727000	9.521500
2.161000	13.386000	-14.303000	6.038350
1.797000	12.690000	-11.341000	2.286850
1.922000	13.268000	-13.581000	1.295560
1.773000	11.707000	-10.908000	3.337220
2.068000	12.806000	-12.225000	1.826520
2.098000	12.706000	-12.103000	1.797890
2.111000	12.599000	-11.985000	1.817050
2.069000	12.872000	-12.523000	2.026390
2.048000	12.979000	-12.849000	1.913740
1.670000	11.044000	-10.775000	3.305500
1.654000	10.888000	-10.807000	3.215760
1.778000	11.549000	-10.930000	3.344500
1.892000	12.640000	-11.463000	1.755750
2.043000	13.037000	-12.996000	1.685880
2.046000	13.092000	-13.139000	1.519660
2.062000	13.136000	-13.277000	1.310770
2.079000	13.193000	-13.408000	1.099910
2.066000	13.249000	-13.539000	1.050980
1.822000	12.446000	-11.237000	2.700400
1.984000	12.589000	-11.589000	1.461410
2.064000	12.539000	-11.721000	1.465620
1.809000	11.958000	-11.011000	3.199500
2.119000	12.490000	-11.866000	1.728060
1.725000	11.295000	-10.848000	3.439010
1.821000	12.203000	-11.125000	3.098690
2.007000	13.292000	-13.818000	1.628270
2.123000	13.299000	-13.916000	1.983390
1.558000	10.632000	-10.708000	2.508790
-0.827000	12.130000	-13.415000	4.210720
0.639000	13.030000	-13.857000	0.363666
-0.323000	12.435000	-13.745000	3.191420
1.056000	12.899000	-14.829000	16.444700
-1.510000	11.654000	-10.943000	1.020050
-0.393000	10.409000	-10.151000	0.356299
-1.223000	11.015000	-10.389000	0.429115
-1.120000	10.901000	-10.356000	0.363158
-1.011000	10.791000	-10.325000	0.265124
-0.896000	10.687000	-10.299000	0.169450
-0.775000	10.589000	-10.278000	0.055010
-0.646000	10.501000	-10.266000	0.112709
-0.517000	10.418000	-10.267000	0.251040
0.661000	12.953000	-13.999000	0.617236
0.764000	12.649000	-15.255000	13.853200
1.497000	10.481000	-10.656000	2.025660
0.806000	12.910000	-14.216000	1.164980
0.825000	12.846000	-14.359000	0.929862
-0.742000	12.105000	-13.550000	5.020820
-0.541000	12.185000	-13.759000	5.364010
-0.319000	12.340000	-13.875000	4.198230
-0.415000	12.215000	-13.886000	5.455160
0.415000	10.201000	-9.884000	0.702431
0.541000	10.133000	-9.936000	0.660590
0.671000	10.075000	-10.000000	0.591944
0.709000	12.572000	-15.531000	8.760790
0.098000	12.691000	-13.862000	1.356810
-0.114000	12.565000	-13.813000	2.190680
-0.001000	12.584000	-13.912000	2.120030
1.013000	10.100000	-10.189000	0.752133
-1.436000	11.308000	-10.759000	0.671086
-1.487000	11.500000	-10.924000	0.865425
0.709000	12.338000	-16.028000	5.200480
1.204000	10.204000	-10.326000	0.977107
0.950000	12.850000	-14.591000	6.863480
1.365000	10.329000	-10.485000	1.306020
0.421000	12.904000	-13.833000	0.563343
0.320000	12.804000	-13.893000	0.946313
-0.019000	10.142000	-10.098000	0.505596
-0.116000	10.125000	-10.215000	0.447125
-0.217000	10.218000	-10.224000	0.468959
0.944000	12.810000	-14.897000	17.550700
-0.904000	11.872000	-13.435000	5.670290
-0.892000	11.727000	-13.501000	7.057710
-0.946000	11.608000	-13.433000	7.095940
0.190000	10.189000	-9.944000	0.642550
0.688000	12.461000	-15.789000	6.629410
-1.500000	11.618000	-11.190000	0.940843
-1.471000	11.522000	-11.303000	0.941060
-1.433000	11.429000	-11.414000	1.101880
-1.382000	11.338000	-11.523000	1.603680
-1.357000	11.146000	-10.574000	0.518453
0.842000	12.717000	-14.982000	18.120100
-1.234000	11.439000	-12.856000	4.402660
-1.157000	11.468000	-13.044000	4.991870
-1.298000	11.421000	-12.648000	4.342310
-1.060000	11.535000	-13.237000	5.876570
-1.300000	11.312000	-12.127000	6.279320
-1.307000	11.303000	-11.915000	5.143560
0.790000	10.029000	-10.086000	0.574322
-1.320000	11.401000	-12.437000	4.918470
-1.299000	11.314000	-12.336000	5.556380
-1.323000	11.280000	-11.721000	3.341220
1.267000	13.142000	-15.325000	13.598200
1.259000	12.906000	-16.131000	2.770240
1.236000	13.086000	-15.731000	6.492020
1.278000	13.069000	-15.887000	4.967650
2.198000	13.341000	-14.160000	4.245420
2.237000	13.302000	-14.017000	2.656480
1.608000	13.429000	-14.867000	10.850500
1.975000	13.448000	-14.492000	8.202370
2.125000	13.443000	-14.445000	7.828350
1.789000	13.474000	-14.684000	9.261130
1.556000	13.400000	-15.009000	13.097200
1.384000	13.246000	-15.142000	16.006800
1.287000	13.168000	-15.478000	10.599600
1.685000	13.498000	-14.987000	11.863400
1.553000	10.487000	-10.781000	2.441690
1.860000	12.540000	-11.352000	2.186350
2.039000	13.269000	-13.678000	1.266680
2.115000	12.765000	-12.381000	2.059500
1.959000	12.485000	-11.474000	1.694290
1.827000	11.802000	-11.023000	3.150140
1.834000	11.644000	-11.042000	3.159090
2.147000	12.663000	-12.251000	2.015780
2.165000	12.557000	-12.129000	1.992520
2.173000	12.447000	-12.013000	1.956400
1.721000	11.139000	-10.881000	3.444030
1.712000	10.983000	-10.914000	3.425400
2.149000	12.794000	-12.674000	2.197660
2.144000	12.862000	-12.821000	2.036480
1.780000	11.392000	-10.957000	3.362680
2.140000	12.924000	-12.963000	1.833710
2.149000	12.985000	-13.102000	1.614710
2.170000	13.048000	-13.234000	1.345950
2.194000	13.118000	-13.362000	1.111160
2.200000	13.184000	-13.496000	1.009760
2.045000	12.425000	-11.607000	1.511600
2.117000	12.375000	-11.749000	1.616800
1.865000	12.293000	-11.246000	2.704160
1.627000	10.729000	-10.835000	3.123070
1.854000	12.049000	-11.132000	3.004520
2.158000	13.270000	-13.774000	1.370290
2.275000	13.264000	-13.874000	1.685970
0.951000	12.821000	-14.744000	13.551000
0.540000	12.926000	-13.918000	0.551542
-0.215000	12.455000	-13.850000	3.121340
-1.495000	11.555000	-11.058000	0.881851
-0.831000	11.990000	-13.493000	5.382980
-0.310000	10.303000	-10.224000	0.442158
0.679000	12.558000	-15.366000	11.536000
0.310000	10.153000	-9.930000	0.648549
0.408000	10.066000	-9.990000	0.591976
0.548000	10.009000	-10.035000	0.539314
-0.659000	12.075000	-13.686000	6.063240
-0.594000	12.030000	-13.818000	6.844320
-0.493000	12.088000	-13.904000	6.578580
-1.278000	11.020000	-10.534000	0.449142
-1.183000	10.902000	-10.499000	0.383346
-1.081000	10.789000	-10.466000	0.291615
-0.975000	10.680000	-10.436000	0.195240
-0.858000	10.580000	-10.410000	0.100197
-0.735000	10.492000	-10.393000	0.032564
-0.612000	10.414000	-10.384000	0.147636
-1.387000	11.169000	-10.722000	0.544879
0.838000	12.725000	-14.820000	15.558600
-0.830000	11.847000	-13.565000	6.764030
1.439000	10.340000	-10.621000	1.551160
-1.453000	11.349000	-10.899000	0.709802
0.836000	12.795000	-14.508000	2.777550
0.681000	12.219000	-16.121000	4.842760
0.746000	12.626000	-15.084000	17.636000
0.441000	12.822000	-13.977000	1.015960
-0.101000	12.473000	-13.955000	3.131450
0.685000	12.875000	-14.138000	1.203290
0.706000	12.803000	-14.279000	1.834370
-1.185000	11.365000	-12.962000	4.874390
0.643000	12.342000	-15.886000	6.232900
0.119000	10.097000	-10.039000	0.526137
1.108000	10.089000	-10.310000	0.859720
-1.253000	11.346000	-12.758000	4.451860
-1.324000	11.244000	-11.616000	2.448370
0.899000	10.002000	-10.193000	0.648074
-0.409000	10.322000	-10.304000	0.355443
0.640000	12.461000	-15.635000	7.753710
0.667000	9.950000	-10.108000	0.505027
1.289000	10.202000	-10.455000	1.076550
-0.302000	12.235000	-14.004000	5.555320
-0.390000	12.105000	-14.018000	6.736800
0.219000	12.703000	-13.950000	1.489340
0.119000	12.598000	-14.004000	2.321730
-1.468000	11.458000	-11.172000	0.777080
-1.430000	11.364000	-11.282000	0.807886
-1.377000	11.274000	-11.390000	1.078410
-0.030000	10.049000	-10.208000	0.405940
0.071000	10.020000	-10.159000	0.425480
-1.100000	11.422000	-13.159000	5.691360
-0.997000	11.492000	-13.360000	6.844690
-1.268000	11.232000	-12.024000	6.247810
-1.286000	11.220000	-11.816000	4.359390
-1.269000	11.233000	-12.235000	6.311230
-1.288000	11.329000	-12.546000	5.004610
-1.268000	11.238000	-12.445000	5.762260
-0.880000	11.579000	-13.560000	8.112610
-0.195000	10.108000	-10.328000	0.373246
1.742000	13.497000	-14.834000	10.446500
1.345000	13.217000	-15.259000	15.046300
1.331000	13.034000	-16.041000	3.708720
1.936000	13.501000	-14.640000	9.458880
2.089000	13.503000	-14.591000	9.455290
1.391000	12.988000	-16.192000	2.442060
2.274000	13.414000	-14.404000	7.318770
2.308000	13.350000	-14.265000	5.471020
1.316000	13.184000	-15.634000	7.979780
1.354000	13.182000	-15.792000	6.026730
2.347000	13.304000	-14.121000	3.492780
1.367000	13.246000	-15.385000	12.550900
1.499000	13.359000	-15.147000	14.992500
1.634000	13.473000	-15.157000	13.538200
1.771000	13.567000	-15.101000	12.377900
1.836000	13.569000	-14.949000	11.630800
2.389000	13.261000	-13.978000	2.149070
1.507000	10.357000	-10.760000	1.991280
1.607000	10.570000	-10.874000	2.967650
1.910000	12.386000	-11.364000	2.178800
2.187000	13.235000	-13.633000	1.086770
2.003000	12.323000	-11.491000	1.761100
2.170000	12.715000	-12.532000	2.256640
2.199000	12.618000	-12.400000	2.186220
1.878000	11.893000	-11.142000	2.924310
1.891000	11.737000	-11.156000	2.883780
1.698000	10.825000	-10.946000	3.349120
1.680000	10.667000	-10.980000	3.299970
1.837000	11.488000	-11.066000	3.165280
2.232000	12.736000	-12.813000	2.094550
2.231000	12.812000	-12.942000	1.890730
2.242000	12.879000	-13.071000	1.639470
2.273000	12.947000	-13.196000	1.353250
2.300000	13.020000	-13.326000	1.150420
2.322000	13.100000	-13.454000	1.020330
2.306000	13.221000	-13.732000	1.199280
2.217000	12.514000	-12.275000	2.120600
2.227000	12.406000	-12.157000	2.071270
1.898000	12.138000	-11.254000	2.707760
1.778000	11.236000	-10.987000	3.389300
1.774000	11.080000	-11.019000	3.407530
2.177000	12.335000	-11.899000	1.824050
2.097000	12.247000	-11.630000	1.623790
2.425000	13.206000	-13.836000	1.472970
-1.465000	11.399000	-11.037000	0.707239
0.842000	12.754000	-14.660000	9.491010
0.562000	12.847000	-14.060000	1.111660
-0.202000	12.357000	-13.985000	4.293110
0.258000	10.072000	-10.017000	0.557854
-0.753000	11.963000	-13.625000	6.524920
-0.308000	10.211000	-10.349000	0.387190
-0.504000	10.346000	-10.382000	0.250118
0.604000	12.453000	-15.475000	9.722830
0.727000	12.608000	-14.902000	17.267400
0.743000	12.648000	-14.728000	11.583400
1.203000	10.080000	-10.431000	0.917654
0.662000	12.532000	-15.199000	16.266600
0.607000	12.222000	-15.982000	5.780490
0.583000	12.098000	-16.076000	5.515000
0.584000	12.769000	-14.200000	2.096800
0.776000	9.918000	-10.209000	0.564713
0.341000	12.718000	-14.035000	1.737990
0.242000	12.611000	-14.091000	2.739800
-1.401000	11.206000	-10.867000	0.582302
0.998000	9.986000	-10.308000	0.774522
0.877000	9.899000	-10.320000	0.673953
-0.824000	11.699000	-13.630000	8.040100
-1.423000	11.304000	-11.147000	0.631545
-1.371000	11.214000	-11.256000	0.737999
-0.284000	12.124000	-14.128000	6.926120
-0.183000	12.249000	-14.115000	5.911700
0.198000	9.986000	-10.120000	0.459755
-1.208000	11.274000	-12.869000	4.691310
-0.090000	10.020000	-10.316000	0.359115
0.025000	9.958000	-10.283000	0.370341
0.018000	12.487000	-14.053000	3.448530
-1.316000	11.037000	-10.684000	0.467121
-1.229000	10.915000	-10.647000	0.409452
-1.136000	10.796000	-10.612000	0.314599
-1.031000	10.688000	-10.580000	0.210121
-0.920000	10.585000	-10.552000	0.111765
-0.804000	10.490000	-10.529000	0.060625
-0.683000	10.403000	-10.511000	0.111892
1.371000	10.206000	-10.588000	1.207380
0.448000	9.962000	-10.083000	0.497960
0.543000	9.899000	-10.145000	0.460701
-1.319000	11.186000	-11.492000	1.617820
-0.932000	11.458000	-13.486000	7.775540
-0.682000	11.928000	-13.757000	7.328060
0.725000	12.739000	-14.423000	1.144400
-1.040000	11.375000	-13.282000	6.481490
-1.236000	11.154000	-12.132000	6.795140
-1.244000	11.151000	-11.920000	5.558650
-1.256000	11.252000	-12.657000	4.847530
-1.238000	11.154000	-12.342000	6.431930
-1.237000	11.162000	-12.554000	5.616460
0.584000	12.345000	-15.737000	6.921750
-1.134000	11.312000	-13.076000	5.422080
-1.265000	11.155000	-11.708000	3.455960
-0.547000	11.972000	-13.929000	7.340700
-0.467000	11.978000	-14.025000	7.645070
-0.258000	10.095000	-10.428000	0.308897
-0.816000	11.549000	-13.692000	8.653610
1.894000	13.546000	-14.794000	10.559600
1.437000	13.310000	-15.275000	14.160200
1.395000	13.274000	-15.533000	9.907900
1.432000	13.286000	-15.691000	7.640630
1.400000	13.162000	-15.951000	4.529730
1.459000	13.120000	-16.102000	3.368520
2.050000	13.566000	-14.744000	10.727500
2.242000	13.482000	-14.544000	9.304660
2.419000	13.370000	-14.366000	6.512460
2.454000	13.309000	-14.228000	4.445930
1.547000	13.416000	-15.298000	13.294700
2.498000	13.260000	-14.086000	2.708080
1.739000	13.558000	-15.235000	12.990300
1.916000	13.639000	-15.076000	11.764600
1.453000	10.215000	-10.722000	1.451050
1.590000	10.393000	-10.904000	2.544340
2.324000	13.169000	-13.591000	1.019790
1.949000	12.230000	-11.372000	2.253410
2.031000	12.165000	-11.494000	1.914380
2.239000	12.656000	-12.679000	2.254260
2.258000	12.569000	-12.545000	2.264400
2.275000	12.471000	-12.419000	2.186080
2.449000	13.149000	-13.692000	1.091820
1.897000	11.581000	-11.174000	2.856310
2.232000	12.294000	-12.045000	1.966030
1.766000	10.923000	-11.052000	3.414820
1.754000	10.766000	-11.086000	3.449320
1.838000	11.332000	-11.094000	3.212040
2.171000	12.217000	-11.791000	1.688640
2.327000	12.698000	-12.948000	1.809200
2.320000	12.780000	-13.046000	1.650450
2.363000	12.832000	-13.159000	1.357600
2.400000	12.910000	-13.288000	1.160910
2.433000	12.997000	-13.416000	1.039870
1.669000	10.504000	-11.013000	3.135160
1.928000	11.982000	-11.262000	2.617610
1.952000	11.827000	-11.269000	2.475210
1.837000	11.177000	-11.125000	3.248270
2.284000	12.365000	-12.300000	2.111620
2.539000	13.196000	-13.947000	1.815720
2.572000	13.126000	-13.803000	1.305520
-1.413000	11.251000	-11.009000	0.593059
-0.759000	11.816000	-13.696000	7.737360
0.739000	12.685000	-14.572000	4.779880
0.463000	12.739000	-14.118000	1.974140
-0.082000	12.369000	-14.094000	4.638700
0.331000	9.971000	-10.094000	0.493956
-0.561000	10.323000	-10.495000	0.195960
-0.429000	10.247000	-10.456000	0.299082
-0.338000	10.146000	-10.473000	0.285941
0.587000	12.431000	-15.312000	13.913500
-1.342000	11.065000	-10.832000	0.478728
-0.757000	11.667000	-13.763000	8.456760
0.143000	12.501000	-14.144000	3.957520
0.043000	12.385000	-14.193000	5.274820
-0.866000	11.429000	-13.616000	8.539950
0.540000	12.341000	-15.582000	8.068250
-1.259000	10.940000	-10.795000	0.419909
-1.169000	10.821000	-10.760000	0.353027
-1.072000	10.706000	-10.727000	0.251682
-0.967000	10.599000	-10.697000	0.166266
0.606000	12.695000	-14.342000	2.713490
1.098000	9.971000	-10.422000	0.825693
0.643000	12.508000	-15.033000	19.245700
-1.364000	11.158000	-11.118000	0.573021
1.292000	10.078000	-10.558000	0.992296
-0.159000	9.999000	-10.451000	0.293106
-0.029000	9.924000	-10.413000	0.324838
0.626000	12.629000	-14.488000	1.525680
0.365000	12.631000	-14.176000	3.140740
0.411000	9.885000	-10.183000	0.442364
-1.312000	11.127000	-11.361000	1.080750
0.976000	9.883000	-10.433000	0.760839
0.644000	9.860000	-10.242000	0.510551
0.747000	9.835000	-10.348000	0.599389
-1.255000	11.101000	-11.590000	2.461080
0.542000	12.224000	-15.837000	6.371020
0.511000	12.099000	-15.934000	5.792870
0.499000	11.968000	-16.025000	5.921370
-0.858000	10.497000	-10.670000	0.146316
0.148000	9.918000	-10.246000	0.396960
0.103000	9.875000	-10.382000	0.364526
-1.074000	11.260000	-13.196000	6.125680
-1.158000	11.209000	-12.984000	5.193210
-0.977000	11.335000	-13.408000	7.273960
-1.211000	11.084000	-11.809000	4.919960
-1.217000	11.178000	-12.770000	4.680940
-0.367000	11.977000	-14.144000	7.855710
-1.201000	11.078000	-12.026000	6.641990
-0.742000	10.405000	-10.648000	0.179800
-0.616000	11.886000	-13.882000	7.710970
-1.200000	11.076000	-12.239000	7.133290
-1.202000	11.087000	-12.666000	5.166300
-1.206000	11.077000	-12.451000	6.288870
-0.543000	11.857000	-14.003000	8.064880
-0.170000	12.135000	-14.226000	7.583050
0.655000	12.550000	-14.773000	12.996100
1.473000	13.352000	-15.423000	11.741900
2.011000	13.627000	-14.917000	11.440200
1.478000	13.276000	-15.851000	5.540870
1.528000	13.249000	-16.010000	4.048040
2.208000	13.554000	-14.687000	10.769000
1.667000	13.509000	-15.336000	12.872300
1.853000	13.629000	-15.225000	12.354600
1.514000	13.375000	-15.581000	9.740780
1.792000	13.597000	-15.365000	12.930400
2.557000	13.323000	-14.331000	5.429770
2.600000	13.261000	-14.199000	3.345050
2.392000	13.442000	-14.503000	8.892400
2.055000	13.705000	-15.079000	11.098000
1.385000	10.078000	-10.686000	1.059570
1.299000	9.951000	-10.656000	0.861234
1.530000	10.233000	-10.859000	1.915790
1.598000	10.252000	-10.975000	2.351000
1.661000	10.347000	-11.056000	2.876420
1.394000	9.950000	-10.783000	0.923797
2.449000	13.077000	-13.552000	0.992609
1.980000	12.073000	-11.379000	2.262920
2.581000	13.054000	-13.656000	1.053680
2.326000	12.611000	-12.820000	1.978810
2.331000	12.523000	-12.688000	2.099680
2.336000	12.426000	-12.562000	2.178400
2.342000	12.323000	-12.441000	2.165680
1.962000	11.671000	-11.282000	2.431940
1.745000	10.606000	-11.118000	3.389450
1.736000	10.446000	-11.154000	3.267700
2.435000	12.695000	-13.098000	1.419710
2.491000	12.788000	-13.245000	1.178430
2.533000	12.881000	-13.378000	1.062580
1.905000	11.426000	-11.197000	2.795720
1.906000	11.271000	-11.228000	2.852890
2.643000	13.190000	-14.066000	2.251950
2.290000	12.255000	-12.187000	2.007280
2.683000	13.110000	-13.927000	1.690790
2.011000	11.914000	-11.388000	2.134430
2.346000	12.215000	-12.327000	2.065430
1.835000	11.021000	-11.156000	3.239750
2.235000	12.182000	-11.938000	1.787470
2.097000	12.097000	-11.591000	1.738650
2.161000	12.092000	-11.705000	1.622810
1.830000	10.865000	-11.187000	3.296900
-1.350000	11.111000	-10.976000	0.516053
0.278000	9.891000	-10.212000	0.419966
1.195000	9.961000	-10.541000	0.872245
0.641000	12.575000	-14.636000	6.746950
0.485000	12.661000	-14.261000	3.261140
-0.692000	11.781000	-13.828000	8.037680
-0.621000	10.320000	-10.628000	0.238560
-0.498000	10.238000	-10.606000	0.301193
-0.385000	10.148000	-10.589000	0.270160
-0.273000	10.044000	-10.561000	0.228058
-0.055000	12.249000	-14.235000	6.769710
0.609000	12.479000	-14.879000	16.777500
-1.276000	10.978000	-10.941000	0.453131
0.519000	12.324000	-15.421000	11.478200
-0.254000	12.017000	-14.239000	7.938600
1.079000	9.863000	-10.542000	0.809531
0.571000	12.406000	-15.149000	18.880000
0.268000	12.519000	-14.230000	4.466140
0.172000	12.405000	-14.281000	5.746240
-1.193000	10.852000	-10.906000	0.421040
-1.103000	10.732000	-10.873000	0.351592
-1.003000	10.621000	-10.842000	0.302796
-0.898000	10.516000	-10.814000	0.275019
-0.788000	10.418000	-10.789000	0.277445
0.490000	12.220000	-15.684000	6.991630
0.455000	12.095000	-15.783000	6.212150
0.428000	11.968000	-15.881000	5.533910
-1.101000	11.151000	-13.102000	5.829140
-1.305000	11.069000	-11.225000	0.734620
-0.912000	11.305000	-13.538000	8.005590
0.236000	9.841000	-10.349000	0.399088
-1.194000	11.020000	-11.691000	3.707420
0.509000	9.837000	-10.282000	0.482320
0.609000	9.802000	-10.388000	0.553205
-1.247000	11.043000	-11.464000	1.645550
-0.803000	11.400000	-13.749000	8.657900
-0.750000	11.517000	-13.827000	8.486160
-0.173000	9.949000	-10.585000	0.224947
-0.067000	9.901000	-10.550000	0.276250
0.060000	9.851000	-10.521000	0.328647
-1.166000	11.111000	-12.884000	4.988800
0.510000	12.581000	-14.403000	3.352770
-1.012000	11.209000	-13.324000	6.814230
-0.619000	11.746000	-13.958000	8.106460
0.847000	9.817000	-10.458000	0.693008
-1.173000	11.000000	-12.562000	5.821480
-1.169000	10.996000	-12.347000	6.911690
-1.136000	10.917000	-12.457000	6.306750
-1.162000	11.001000	-12.132000	7.340410
-1.166000	11.009000	-11.914000	6.125490
-0.460000	11.846000	-14.118000	8.182000
-1.161000	11.014000	-12.782000	4.931530
-0.307000	11.905000	-14.259000	8.036180
-0.083000	12.124000	-14.317000	8.180160
1.289000	9.829000	-10.764000	0.768829
1.593000	13.451000	-15.462000	11.631200
2.177000	13.630000	-14.833000	11.593900
2.167000	13.700000	-14.976000	11.419900
1.559000	13.383000	-15.745000	7.401060
1.605000	13.369000	-15.909000	5.271770
2.364000	13.520000	-14.640000	11.041600
1.982000	13.704000	-15.219000	11.963900
1.920000	13.681000	-15.363000	12.610700
2.536000	13.391000	-14.466000	7.932190
1.725000	13.544000	-15.499000	12.056100
2.178000	13.762000	-15.102000	11.073200
2.693000	13.266000	-14.317000	4.416700
1.471000	10.087000	-10.823000	1.289850
1.559000	10.101000	-10.973000	1.749880
1.644000	10.191000	-11.094000	2.511980
1.387000	9.828000	-10.889000	0.836862
1.264000	9.731000	-10.887000	0.739035
2.561000	12.970000	-13.514000	1.021790
2.059000	12.006000	-11.498000	1.910340
2.716000	13.013000	-13.778000	1.334980
2.683000	12.937000	-13.617000	1.156430
1.822000	10.708000	-11.219000	3.386690
2.424000	12.582000	-12.960000	1.641720
2.416000	12.484000	-12.827000	1.829680
2.408000	12.383000	-12.701000	2.014040
2.404000	12.280000	-12.581000	2.119130
2.402000	12.172000	-12.467000	2.150680
1.815000	10.549000	-11.252000	3.358580
1.971000	11.516000	-11.300000	2.361930
1.905000	11.117000	-11.260000	2.954260
1.906000	10.962000	-11.289000	3.016410
2.737000	13.187000	-14.193000	2.736400
2.782000	13.106000	-14.062000	1.960520
2.027000	11.757000	-11.396000	2.048090
2.137000	11.964000	-11.622000	1.687510
1.723000	10.283000	-11.195000	3.054630
1.981000	11.363000	-11.327000	2.320690
2.296000	12.144000	-12.080000	1.832760
2.228000	12.063000	-11.842000	1.655980
2.352000	12.104000	-12.219000	1.900520
2.573000	12.654000	-13.218000	1.271840
2.622000	12.753000	-13.348000	1.149130
-1.291000	11.021000	-11.085000	0.557248
0.372000	9.830000	-10.318000	0.441349
0.392000	12.544000	-14.315000	4.475080
1.184000	9.847000	-10.651000	0.806476
-0.688000	11.633000	-13.899000	8.179010
0.537000	12.505000	-14.550000	2.003630
0.549000	12.454000	-14.719000	9.046860
0.506000	12.301000	-15.259000	16.590000
-0.673000	10.326000	-10.767000	0.308462
-0.554000	10.240000	-10.747000	0.362809
-0.441000	10.150000	-10.727000	0.350257
-0.328000	10.058000	-10.708000	0.251769
-0.222000	9.966000	-10.698000	0.179444
-0.099000	9.898000	-10.688000	0.223373
0.025000	9.843000	-10.663000	0.276220
0.196000	9.816000	-10.492000	0.381429
0.158000	9.808000	-10.638000	0.346280
-1.210000	10.892000	-11.051000	0.562433
0.432000	11.831000	-15.967000	6.315770
0.461000	12.209000	-15.526000	9.095450
-1.124000	10.768000	-11.018000	0.545567
-1.031000	10.652000	-10.987000	0.531673
-0.931000	10.542000	-10.958000	0.505888
0.948000	9.795000	-10.567000	0.751518
1.157000	9.747000	-10.776000	0.738172
-1.039000	11.095000	-13.228000	6.325300
-0.845000	11.278000	-13.670000	8.565570
0.419000	12.084000	-15.626000	7.500200
0.390000	11.956000	-15.724000	6.053960
-1.238000	10.987000	-11.331000	1.109020
-0.947000	11.174000	-13.456000	7.489740
0.709000	9.779000	-10.497000	0.632329
0.810000	9.763000	-10.607000	0.697496
-1.135000	10.946000	-11.796000	5.276200
-1.111000	11.049000	-13.001000	5.657630
0.471000	9.794000	-10.427000	0.502874
-0.737000	11.367000	-13.882000	8.165860
-0.678000	11.481000	-13.964000	7.879370
-1.182000	10.962000	-11.567000	2.499380
0.547000	12.381000	-14.991000	20.329700
0.297000	12.430000	-14.369000	5.611280
-0.380000	11.824000	-14.229000	7.907790
0.082000	12.285000	-14.328000	6.939530
0.013000	12.160000	-14.377000	8.012820
-1.132000	10.927000	-12.676000	5.360280
-1.102000	10.840000	-12.570000	5.713130
-0.826000	10.439000	-10.932000	0.475753
-1.126000	10.922000	-12.240000	7.523470
-1.093000	10.841000	-12.350000	6.954820
-0.152000	12.021000	-14.332000	8.331530
-0.221000	11.904000	-14.344000	8.167120
-1.104000	10.952000	-12.896000	5.514320
-1.122000	10.932000	-12.021000	7.132240
-0.539000	11.721000	-14.086000	8.073120
1.648000	13.472000	-15.628000	9.800320
2.646000	13.329000	-14.429000	6.765810
1.661000	13.329000	-16.067000	3.929420
1.696000	13.473000	-15.797000	7.222270
2.121000	13.766000	-15.219000	11.917300
2.058000	13.756000	-15.357000	12.731600
2.335000	13.609000	-14.775000	11.930200
2.520000	13.471000	-14.598000	10.675100
1.859000	13.636000	-15.511000	12.183600
2.312000	13.694000	-14.912000	11.968200
2.297000	13.767000	-15.056000	11.692800
1.487000	9.953000	-10.916000	1.101430
1.475000	9.824000	-11.016000	0.962045
1.364000	9.713000	-10.999000	0.765288
1.621000	10.061000	-11.111000	2.034200
2.659000	12.847000	-13.480000	1.112360
2.099000	11.840000	-11.523000	1.751200
1.903000	10.806000	-11.318000	3.094220
1.900000	10.649000	-11.347000	3.152230
2.536000	12.554000	-13.088000	1.408620
2.514000	12.450000	-12.958000	1.580110
2.036000	11.604000	-11.399000	1.992280
1.807000	10.389000	-11.288000	3.250250
2.492000	12.344000	-12.836000	1.802370
2.406000	12.063000	-12.358000	2.032010
2.822000	13.015000	-13.930000	1.637890
2.477000	12.240000	-12.716000	1.943700
2.702000	12.617000	-13.329000	1.285180
2.750000	12.713000	-13.458000	1.244120
2.469000	12.132000	-12.602000	2.027530
2.873000	13.106000	-14.200000	2.279480
2.826000	13.197000	-14.325000	3.648750
2.295000	12.029000	-11.979000	1.662760
2.457000	12.020000	-12.496000	2.121270
2.352000	11.990000	-12.118000	1.736150
1.984000	11.210000	-11.359000	2.416710
1.985000	11.056000	-11.389000	2.572670
2.052000	11.453000	-11.424000	1.920720
3.377000	12.888000	-14.743000	5.752380
2.210000	11.943000	-11.754000	1.583120
1.696000	10.109000	-11.241000	2.641460
2.788000	12.897000	-13.699000	1.334390
3.154000	13.019000	-14.452000	2.595170
3.239000	12.937000	-14.510000	2.339700
3.187000	13.064000	-14.565000	3.993650
3.290000	12.978000	-14.636000	3.768120
-1.227000	10.935000	-11.193000	0.778742
0.333000	9.794000	-10.461000	0.436090
0.418000	12.462000	-14.458000	3.820350
1.048000	9.783000	-10.678000	0.807842
-0.608000	11.596000	-14.034000	7.989540
0.515000	12.378000	-14.855000	15.704600
-1.145000	10.807000	-11.161000	0.768529
-1.056000	10.686000	-11.130000	0.747509
-0.959000	10.573000	-11.101000	0.773196
-0.859000	10.465000	-11.074000	0.763994
0.453000	12.187000	-15.367000	14.060000
0.490000	12.275000	-15.097000	20.854600
-0.454000	11.704000	-14.208000	7.663340
-0.517000	11.572000	-14.167000	7.705080
0.411000	12.065000	-15.468000	11.215000
0.374000	11.825000	-15.818000	5.752710
-0.717000	10.340000	-10.908000	0.491294
-0.604000	10.248000	-10.887000	0.523222
0.382000	11.692000	-15.905000	6.429040
0.439000	12.389000	-14.608000	2.205590
-0.880000	11.154000	-13.591000	8.108870
-1.056000	10.990000	-13.122000	6.054210
-0.489000	10.159000	-10.867000	0.513816
-1.119000	10.884000	-11.673000	3.864140
-0.376000	10.069000	-10.849000	0.415012
-0.265000	9.979000	-10.833000	0.278038
-0.141000	9.907000	-10.820000	0.216337
-0.781000	11.249000	-13.801000	8.382100
-1.172000	10.905000	-11.437000	1.618430
0.377000	11.940000	-15.565000	8.494440
0.572000	9.767000	-10.538000	0.571791
0.672000	9.745000	-10.650000	0.623761
-1.088000	10.868000	-11.904000	6.462310
1.123000	9.679000	-10.917000	0.725222
1.231000	9.648000	-11.019000	0.698939
-0.013000	9.846000	-10.803000	0.230892
0.122000	9.810000	-10.782000	0.289234
0.296000	9.784000	-10.610000	0.421203
0.206000	12.312000	-14.418000	6.607300
0.911000	9.739000	-10.714000	0.754228
-1.085000	10.858000	-12.792000	5.401370
-1.056000	10.770000	-12.686000	5.464760
-1.084000	10.852000	-12.129000	7.580590
-1.045000	10.773000	-12.239000	7.457100
-1.058000	10.763000	-12.462000	6.206110
-1.051000	10.891000	-13.015000	6.015980
-0.049000	12.032000	-14.418000	8.476160
-0.118000	11.907000	-14.434000	8.278090
0.129000	12.186000	-14.461000	7.594130
-0.968000	11.029000	-13.365000	7.009710
-0.293000	11.788000	-14.338000	7.885410
-0.669000	11.329000	-14.008000	7.519100
1.333000	9.623000	-11.124000	0.718856
1.798000	13.573000	-15.674000	9.842040
2.770000	13.291000	-14.444000	6.246620
2.684000	13.404000	-14.553000	9.203640
2.490000	13.569000	-14.730000	12.720100
2.462000	13.669000	-14.861000	12.845500
1.743000	13.445000	-15.966000	5.419870
3.239000	13.104000	-14.690000	6.287130
1.996000	13.725000	-15.502000	12.317000
2.264000	13.821000	-15.204000	11.907700
2.205000	13.824000	-15.347000	12.924500
2.439000	13.759000	-15.002000	12.735100
3.057000	13.128000	-14.483000	4.067560
1.557000	9.951000	-11.056000	1.421770
1.455000	9.712000	-11.123000	0.861212
1.431000	9.611000	-11.232000	0.792491
2.779000	12.808000	-13.586000	1.266120
2.863000	12.912000	-13.815000	1.498860
2.659000	12.516000	-13.205000	1.339270
2.623000	12.415000	-13.081000	1.393570
2.105000	11.675000	-11.503000	1.689990
2.105000	11.540000	-11.502000	1.695220
2.593000	12.310000	-12.959000	1.529910
1.791000	10.229000	-11.332000	3.071230
2.184000	11.826000	-11.667000	1.551500
1.892000	10.493000	-11.380000	3.174110
2.918000	13.015000	-14.072000	1.803740
2.562000	12.201000	-12.846000	1.729160
1.627000	9.954000	-11.199000	1.885700
2.063000	11.304000	-11.459000	1.940410
2.065000	11.147000	-11.488000	2.071480
3.330000	12.843000	-14.585000	2.121090
2.544000	12.093000	-12.733000	1.811910
1.984000	10.901000	-11.418000	2.728790
1.982000	10.746000	-11.445000	2.864010
2.405000	11.949000	-12.256000	1.872600
2.452000	11.906000	-12.394000	2.051520
2.885000	12.791000	-13.705000	1.479490
2.280000	11.911000	-11.887000	1.556810
2.343000	11.874000	-12.023000	1.599380
3.457000	12.750000	-14.811000	7.668330
3.180000	12.912000	-14.378000	1.850120
3.084000	13.023000	-14.344000	2.142910
2.527000	11.981000	-12.627000	1.893350
2.823000	12.576000	-13.437000	1.381190
2.961000	13.117000	-14.337000	2.859050
-1.161000	10.853000	-11.301000	1.092020
1.016000	9.712000	-10.817000	0.761746
0.433000	9.770000	-10.577000	0.502517
0.327000	12.343000	-14.509000	4.440980
0.446000	12.317000	-14.759000	9.491870
0.456000	12.249000	-14.926000	18.737300
-0.589000	11.430000	-14.105000	7.565920
0.444000	12.165000	-15.210000	19.774800
-0.998000	10.931000	-13.241000	6.587360
-0.364000	11.698000	-14.303000	7.672400
-1.080000	10.725000	-11.271000	1.023960
-0.902000	11.023000	-13.511000	7.588360
0.409000	12.045000	-15.311000	17.943500
0.378000	11.920000	-15.406000	14.148000
0.347000	11.812000	-15.661000	6.223650
0.342000	11.682000	-15.753000	5.932020
0.320000	11.557000	-15.846000	5.418310
-0.987000	10.607000	-11.242000	1.097150
-0.757000	10.360000	-11.049000	0.763823
-0.646000	10.264000	-11.027000	0.805833
-0.534000	10.171000	-11.007000	0.807917
-0.420000	10.082000	-10.989000	0.719574
-0.303000	9.998000	-10.972000	0.580187
-0.183000	9.920000	-10.957000	0.453195
-0.814000	11.129000	-13.722000	8.299870
-1.059000	10.808000	-11.780000	5.368930
0.773000	9.718000	-10.759000	0.655460
0.877000	9.692000	-10.864000	0.691568
0.534000	9.745000	-10.692000	0.541334
0.062000	12.055000	-14.496000	8.012140
-0.005000	11.922000	-14.520000	7.920200
-1.104000	10.827000	-11.543000	2.587320
-0.055000	9.855000	-10.941000	0.363789
0.082000	9.815000	-10.923000	0.373679
-0.888000	10.497000	-11.215000	1.194900
0.258000	9.780000	-10.757000	0.367013
0.248000	12.214000	-14.549000	5.073420
1.090000	9.617000	-11.059000	0.702421
1.195000	9.571000	-11.155000	0.677112
-0.990000	10.834000	-13.133000	6.491750
-1.043000	10.789000	-12.013000	7.228650
-1.002000	10.708000	-12.123000	7.340020
-1.011000	10.692000	-12.576000	5.880830
-1.029000	10.797000	-12.908000	5.993720
-0.998000	10.708000	-12.801000	5.872550
-1.010000	10.692000	-12.350000	6.747060
-0.715000	11.215000	-13.928000	7.805330
-0.193000	11.776000	-14.437000	7.879920
0.219000	9.778000	-10.902000	0.400387
1.300000	9.545000	-11.255000	0.708326
-0.404000	11.557000	-14.302000	7.430820
-0.604000	11.280000	-14.105000	7.326690
2.912000	13.220000	-14.459000	5.340930
2.645000	13.516000	-14.691000	12.546900
2.613000	13.623000	-14.820000	13.968400
2.586000	13.730000	-14.949000	13.502900
1.834000	13.548000	-15.863000	7.131260
1.884000	13.515000	-16.026000	5.316830
2.138000	13.801000	-15.491000	12.739200
1.944000	13.678000	-15.647000	10.706100
2.850000	13.336000	-14.568000	8.708840
3.124000	13.181000	-14.631000	6.959080
3.209000	13.234000	-14.747000	10.204900
2.415000	13.835000	-15.158000	12.734000
2.374000	13.884000	-15.334000	12.767000
1.555000	9.824000	-11.151000	1.230400
1.531000	9.710000	-11.255000	1.111020
3.006000	13.017000	-14.210000	1.981370
2.161000	11.719000	-11.602000	1.536790
2.880000	12.665000	-13.581000	1.457890
1.976000	10.592000	-11.474000	2.958030
2.178000	11.572000	-11.614000	1.492700
2.142000	11.407000	-11.563000	1.618540
2.954000	12.910000	-13.952000	1.706770
2.979000	12.794000	-13.838000	1.676830
2.781000	12.476000	-13.316000	1.374910
2.739000	12.375000	-13.197000	1.387210
2.700000	12.273000	-13.077000	1.423000
2.663000	12.165000	-12.964000	1.514310
3.401000	12.729000	-14.667000	2.355560
1.779000	10.077000	-11.393000	2.831340
1.700000	9.954000	-11.334000	2.313100
1.881000	10.338000	-11.419000	3.145880
2.627000	12.054000	-12.859000	1.647140
3.116000	12.903000	-14.239000	1.830640
3.274000	12.813000	-14.440000	1.559340
2.259000	11.795000	-11.798000	1.483140
2.323000	11.758000	-11.932000	1.506560
2.397000	11.833000	-12.160000	1.729860
2.066000	10.992000	-11.517000	2.278600
2.064000	10.837000	-11.545000	2.499350
2.604000	11.942000	-12.753000	1.691020
2.146000	11.237000	-11.587000	1.693310
2.509000	11.865000	-12.528000	1.998610
2.444000	11.790000	-12.298000	1.932200
2.918000	12.526000	-13.526000	1.577140
-1.094000	10.773000	-11.409000	1.560720
0.983000	9.659000	-10.963000	0.720815
0.353000	12.258000	-14.650000	2.411590
0.396000	9.758000	-10.728000	0.459173
-0.277000	11.631000	-14.413000	7.374370
0.427000	12.143000	-15.059000	22.982100
-0.485000	11.426000	-14.238000	7.466340
-1.009000	10.648000	-11.382000	1.614570
-0.787000	10.389000	-11.190000	1.219070
0.398000	12.029000	-15.162000	24.053700
-0.685000	10.285000	-11.168000	1.226190
-0.575000	10.189000	-11.147000	1.226400
-0.899000	10.884000	-13.446000	7.317940
-0.935000	10.871000	-13.337000	7.184550
0.354000	11.793000	-15.501000	10.091200
0.324000	11.668000	-15.595000	6.839260
0.305000	11.541000	-15.690000	5.424380
0.953000	9.606000	-11.107000	0.751105
1.056000	9.551000	-11.201000	0.732143
1.164000	9.494000	-11.296000	0.713118
-0.463000	10.097000	-11.128000	1.147870
-0.347000	10.010000	-11.111000	1.032270
-0.224000	9.934000	-11.094000	0.939655
-0.096000	9.870000	-11.079000	0.806745
0.038000	9.818000	-11.062000	0.718985
-1.038000	10.752000	-11.652000	4.024580
-0.917000	10.531000	-11.355000	1.777350
0.368000	12.181000	-14.796000	10.627500
-0.838000	11.008000	-13.645000	7.972290
-1.010000	10.728000	-11.890000	6.353570
-0.964000	10.647000	-12.001000	6.774840
-0.074000	11.787000	-14.529000	7.612080
0.358000	9.752000	-10.877000	0.419549
0.277000	11.418000	-15.785000	4.471540
0.635000	9.717000	-10.805000	0.545714
0.738000	9.688000	-10.915000	0.581973
0.381000	11.903000	-15.247000	22.976700
0.173000	12.083000	-14.585000	5.283940
0.106000	11.946000	-14.612000	5.280530
-0.925000	10.779000	-13.248000	7.129510
0.176000	9.779000	-11.044000	0.715177
-0.956000	10.628000	-12.692000	6.018820
-0.749000	11.097000	-13.851000	7.924220
-0.961000	10.628000	-12.235000	7.114440
-0.964000	10.620000	-12.465000	6.278280
-0.646000	11.178000	-14.045000	7.272430
-0.968000	10.740000	-13.025000	6.511540
-0.934000	10.652000	-12.918000	6.609740
-0.534000	11.290000	-14.201000	7.201560
1.395000	9.536000	-11.336000	0.769887
2.994000	13.256000	-14.589000	7.868100
1.915000	13.632000	-15.780000	8.716510
1.984000	13.630000	-15.928000	6.783900
2.799000	13.452000	-14.677000	11.950100
2.280000	13.871000	-15.483000	12.966200
2.763000	13.568000	-14.794000	14.505700
2.083000	13.762000	-15.637000	11.341800
2.217000	13.842000	-15.626000	11.613900
2.564000	13.822000	-15.093000	13.726900
2.735000	13.684000	-14.909000	14.738000
3.084000	13.310000	-14.710000	10.905200
1.616000	9.827000	-11.293000	1.646560
1.496000	9.607000	-11.360000	0.998116
1.690000	9.815000	-11.427000	1.943680
1.446000	9.499000	-11.450000	0.878935
2.229000	11.682000	-11.712000	1.436910
3.041000	12.902000	-14.096000	1.844440
3.464000	12.599000	-14.747000	3.149210
3.515000	12.462000	-14.821000	3.916290
1.967000	10.439000	-11.508000	3.034460
2.059000	10.685000	-11.572000	2.691400
2.048000	10.535000	-11.602000	2.831390
1.770000	9.935000	-11.473000	2.526410
3.069000	12.790000	-13.978000	1.864470
2.890000	12.428000	-13.430000	1.571350
2.849000	12.326000	-13.318000	1.564310
2.805000	12.228000	-13.196000	1.514530
2.767000	12.125000	-13.080000	1.459980
2.728000	12.016000	-12.972000	1.462770
2.689000	11.903000	-12.874000	1.529910
1.867000	10.188000	-11.469000	3.023170
2.297000	11.646000	-11.842000	1.422680
3.355000	12.705000	-14.515000	1.332310
2.218000	11.446000	-11.679000	1.441170
2.219000	11.314000	-11.690000	1.504420
2.380000	11.717000	-12.068000	1.605760
3.216000	12.792000	-14.294000	1.660090
2.427000	11.673000	-12.207000	1.812680
2.147000	11.079000	-11.616000	1.842200
2.495000	11.748000	-12.434000	2.012570
2.987000	12.670000	-13.728000	1.685910
2.145000	10.925000	-11.646000	2.087860
2.996000	12.541000	-13.637000	1.707200
2.581000	11.827000	-12.655000	1.750820
-1.024000	10.698000	-11.519000	2.639450
0.497000	9.732000	-10.845000	0.461168
0.276000	12.124000	-14.685000	2.501930
0.844000	9.648000	-11.016000	0.658493
0.382000	12.096000	-14.926000	20.594200
0.377000	12.021000	-15.037000	24.937200
1.295000	9.461000	-11.399000	0.743185
0.360000	11.775000	-15.339000	18.546600
-0.312000	11.459000	-14.422000	6.728400
-0.399000	11.403000	-14.343000	6.984270
-0.940000	10.572000	-11.494000	2.650250
-0.817000	10.422000	-11.330000	1.905320
-0.717000	10.315000	-11.308000	1.935420
-0.613000	10.212000	-11.286000	1.858730
-0.504000	10.115000	-11.267000	1.705750
-0.390000	10.026000	-11.249000	1.560530
-0.267000	9.949000	-11.232000	1.505980
-0.139000	9.884000	-11.217000	1.454450
-0.007000	9.826000	-11.201000	1.345140
0.128000	9.775000	-11.183000	1.225200
0.337000	11.648000	-15.437000	13.272800
0.306000	11.524000	-15.534000	7.768750
0.268000	11.402000	-15.629000	4.763050
-0.843000	10.884000	-13.573000	7.578290
-0.145000	11.648000	-14.525000	7.062320
0.317000	9.746000	-11.023000	0.670560
0.268000	9.737000	-11.166000	1.190540
-0.983000	10.672000	-11.762000	5.125000
-0.931000	10.591000	-11.874000	5.749560
-0.921000	10.566000	-12.114000	6.712640
0.210000	11.981000	-14.713000	2.804150
0.599000	9.696000	-10.962000	0.516031
-0.444000	11.281000	-14.312000	6.771320
0.928000	9.547000	-11.233000	0.840379
1.000000	9.465000	-11.342000	0.777772
-0.773000	10.980000	-13.773000	7.732730
-0.909000	10.554000	-12.580000	6.278930
0.044000	11.806000	-14.623000	5.331960
-0.915000	10.554000	-12.349000	6.825750
-0.893000	10.571000	-12.809000	6.705100
-0.902000	10.687000	-13.142000	7.267680
-0.870000	10.599000	-13.035000	7.223990
-0.679000	11.063000	-13.973000	7.570090
0.362000	11.897000	-15.091000	26.525900
-0.864000	10.734000	-13.376000	7.272270
-0.571000	11.155000	-14.157000	6.989260
1.376000	9.422000	-11.523000	0.790328
2.948000	13.383000	-14.686000	11.377100
2.038000	13.711000	-15.781000	9.241260
2.910000	13.507000	-14.784000	14.351400
2.101000	13.667000	-16.027000	5.885680
2.881000	13.631000	-14.884000	15.942700
1.599000	9.701000	-11.390000	1.425420
1.562000	9.579000	-11.494000	1.215150
1.757000	9.803000	-11.563000	2.195600
1.838000	9.915000	-11.604000	2.639840
1.855000	10.046000	-11.529000	2.823440
2.263000	11.541000	-11.751000	1.376350
3.158000	12.771000	-14.132000	1.923860
2.994000	12.406000	-13.548000	1.741010
2.966000	12.268000	-13.448000	1.790510
2.903000	12.177000	-13.314000	1.713100
3.079000	12.670000	-13.865000	1.861190
2.137000	10.772000	-11.676000	2.364580
2.126000	10.622000	-11.703000	2.607570
2.867000	12.079000	-13.195000	1.577680
2.827000	11.974000	-13.086000	1.463220
3.420000	12.585000	-14.592000	1.124630
1.952000	10.291000	-11.552000	3.079390
2.035000	10.388000	-11.638000	2.924650
2.787000	11.863000	-12.985000	1.430470
2.358000	11.603000	-11.976000	1.504890
2.411000	11.558000	-12.114000	1.629830
2.658000	11.788000	-12.779000	1.571440
3.308000	12.686000	-14.367000	1.560170
3.088000	12.544000	-13.765000	1.819240
2.280000	11.396000	-11.793000	1.437970
3.473000	12.455000	-14.666000	1.048200
2.225000	11.163000	-11.716000	1.563100
2.225000	11.009000	-11.747000	1.706170
2.557000	11.709000	-12.564000	1.859060
2.472000	11.630000	-12.345000	1.992340
2.524000	11.589000	-12.480000	1.994840
1.921000	10.015000	-11.661000	2.811740
-0.959000	10.621000	-11.630000	3.891730
0.458000	9.716000	-10.997000	0.563585
0.704000	9.654000	-11.076000	0.692786
0.815000	9.596000	-11.169000	0.825173
0.305000	12.031000	-14.817000	11.584700
0.337000	11.940000	-14.945000	22.564600
-0.826000	10.759000	-13.508000	7.201700
0.352000	11.763000	-15.171000	27.180600
0.340000	11.632000	-15.274000	24.114100
-0.198000	11.502000	-14.516000	6.416980
-0.783000	10.871000	-13.695000	7.492240
1.142000	9.409000	-11.431000	0.714958
-0.847000	10.456000	-11.470000	2.761940
-0.747000	10.347000	-11.447000	2.870370
-0.648000	10.239000	-11.426000	2.762100
-0.543000	10.138000	-11.406000	2.530810
-0.432000	10.045000	-11.387000	2.282990
-0.312000	9.963000	-11.370000	2.085390
-0.187000	9.891000	-11.354000	1.968680
0.238000	11.278000	-15.724000	4.154830
-0.057000	9.828000	-11.338000	1.941430
0.157000	11.833000	-14.725000	3.474490
-0.904000	10.540000	-11.742000	4.716470
-0.489000	11.147000	-14.267000	6.677640
-0.883000	10.510000	-11.987000	5.967010
-0.870000	10.492000	-12.228000	6.876360
1.256000	9.369000	-11.534000	0.720008
0.320000	11.503000	-15.377000	17.643900
0.279000	11.382000	-15.473000	9.699510
0.412000	9.703000	-11.145000	1.096500
0.818000	9.511000	-11.322000	0.918013
0.077000	9.773000	-11.321000	1.839390
0.212000	9.719000	-11.303000	1.647790
-0.607000	11.033000	-14.093000	7.005780
-0.848000	10.495000	-12.697000	6.700510
-0.864000	10.484000	-12.465000	6.431770
-0.829000	10.517000	-12.926000	7.340530
-0.019000	11.666000	-14.622000	5.197930
-0.839000	10.635000	-13.261000	7.722720
-0.805000	10.547000	-13.153000	7.723360
-0.703000	10.945000	-13.895000	7.593900
-0.340000	11.284000	-14.427000	6.111510
1.500000	9.456000	-11.607000	0.997258
-0.792000	10.647000	-13.462000	6.938920
3.051000	13.441000	-14.792000	14.541600
2.134000	13.730000	-15.910000	7.671200
1.667000	9.687000	-11.527000	1.656200
1.632000	9.566000	-11.634000	1.415580
1.826000	9.799000	-11.700000	2.415210
1.894000	9.903000	-11.720000	2.759070
1.596000	9.458000	-11.754000	1.187800
1.938000	10.149000	-11.604000	2.974200
2.324000	11.495000	-11.885000	1.451540
3.162000	12.664000	-13.996000	2.009290
3.517000	12.317000	-14.736000	1.006320
2.110000	10.479000	-11.729000	2.787840
2.020000	10.245000	-11.686000	2.972340
3.378000	12.568000	-14.441000	1.424870
3.437000	12.446000	-14.513000	1.338960
2.740000	11.747000	-12.898000	1.487650
2.991000	12.118000	-13.407000	1.842700
2.960000	12.025000	-13.311000	1.739370
2.923000	11.925000	-13.200000	1.569320
2.881000	11.818000	-13.097000	1.453590
3.554000	12.175000	-14.805000	0.979806
3.262000	12.668000	-14.224000	1.954940
2.455000	11.512000	-12.253000	1.840180
3.088000	12.411000	-13.675000	1.810580
2.628000	11.670000	-12.689000	1.615620
2.592000	11.550000	-12.607000	1.742650
2.499000	11.468000	-12.392000	2.007100
2.218000	10.855000	-11.779000	1.969720
2.203000	10.702000	-11.810000	2.293650
3.076000	12.273000	-13.590000	1.839670
2.381000	11.447000	-12.021000	1.536300
2.288000	11.248000	-11.823000	1.505370
2.290000	11.096000	-11.855000	1.595380
3.173000	12.542000	-13.896000	1.974210
1.967000	9.970000	-11.792000	2.813960
0.260000	11.874000	-14.837000	12.686300
-0.874000	10.497000	-11.607000	3.815770
0.560000	9.673000	-11.119000	0.885653
0.669000	9.605000	-11.247000	1.149900
0.305000	11.770000	-14.990000	24.099300
0.310000	11.621000	-15.108000	29.374400
-0.234000	11.353000	-14.515000	5.795270
0.305000	11.488000	-15.217000	28.312900
0.880000	9.405000	-11.439000	0.672006
1.011000	9.363000	-11.481000	0.635952
0.354000	9.683000	-11.285000	1.612500
1.365000	9.356000	-11.644000	0.803863
1.467000	9.362000	-11.759000	0.926804
-0.780000	10.381000	-11.585000	3.874570
-0.683000	10.269000	-11.564000	3.779580
-0.584000	10.162000	-11.544000	3.388620
-0.474000	10.066000	-11.526000	3.090060
-0.356000	9.981000	-11.508000	2.935420
-0.235000	9.902000	-11.491000	2.700730
-0.109000	9.830000	-11.474000	2.475430
0.022000	9.769000	-11.458000	2.362280
0.242000	11.260000	-15.567000	5.418060
0.154000	9.710000	-11.440000	2.097960
-0.850000	10.459000	-11.856000	5.009960
-0.830000	10.435000	-12.102000	6.209680
0.097000	11.689000	-14.727000	3.108160
-0.816000	10.422000	-12.344000	6.789520
-0.775000	10.755000	-13.627000	7.220490
0.214000	11.137000	-15.658000	4.419720
0.292000	11.361000	-15.319000	22.356400
-0.526000	11.015000	-14.209000	6.593710
0.288000	9.655000	-11.420000	1.796690
-0.077000	11.525000	-14.614000	4.928310
-0.804000	10.423000	-12.582000	6.533340
-0.765000	10.464000	-13.044000	7.655710
-0.629000	10.912000	-14.016000	7.443100
-0.784000	10.440000	-12.815000	7.280840
-0.775000	10.580000	-13.373000	7.405490
-0.737000	10.497000	-13.270000	8.087250
-0.400000	11.140000	-14.378000	6.037600
-0.715000	10.832000	-13.813000	7.400470
-0.748000	10.638000	-13.567000	6.852090
1.123000	9.322000	-11.570000	0.642541
1.739000	9.682000	-11.665000	1.871900
1.909000	9.825000	-11.842000	2.658010
1.992000	9.923000	-11.902000	2.850980
1.712000	9.569000	-11.775000	1.581050
2.340000	11.342000	-11.925000	1.506350
3.225000	12.638000	-14.106000	2.134450
2.004000	10.105000	-11.740000	2.885350
2.096000	10.340000	-11.769000	2.893630
2.185000	10.552000	-11.837000	2.606140
2.158000	10.428000	-11.846000	2.797510
3.065000	12.131000	-13.519000	1.904020
3.487000	12.315000	-14.582000	1.299000
3.528000	12.178000	-14.646000	1.381290
3.179000	12.412000	-13.805000	1.923740
3.174000	12.277000	-13.721000	1.895340
3.057000	11.977000	-13.440000	1.870350
3.014000	11.872000	-13.317000	1.681310
2.347000	11.188000	-11.962000	1.586000
2.704000	11.630000	-12.811000	1.500330
3.563000	12.037000	-14.711000	1.480900
2.971000	11.768000	-13.209000	1.529890
2.055000	10.055000	-11.890000	2.886400
2.044000	9.952000	-11.991000	2.977240
1.978000	9.827000	-12.010000	2.854730
3.336000	12.552000	-14.295000	1.984450
2.285000	10.941000	-11.888000	1.773520
2.275000	10.784000	-11.919000	2.021910
3.399000	12.432000	-14.365000	1.990100
2.666000	11.510000	-12.730000	1.522700
2.555000	11.428000	-12.526000	1.883400
3.240000	12.531000	-14.026000	2.196300
2.431000	11.397000	-12.160000	1.647350
2.475000	11.349000	-12.301000	1.861620
2.832000	11.705000	-13.009000	1.444650
0.207000	11.721000	-14.844000	11.876700
-0.815000	10.418000	-11.722000	4.558900
0.504000	9.650000	-11.266000	1.481830
-0.725000	10.750000	-13.733000	7.013630
0.246000	11.601000	-14.957000	22.432300
-0.720000	10.301000	-11.702000	4.444760
-0.622000	10.191000	-11.682000	4.063850
-0.520000	10.084000	-11.663000	3.602710
-0.405000	9.994000	-11.646000	3.437730
-0.283000	9.915000	-11.629000	3.368450
-0.158000	9.840000	-11.612000	3.115750
-0.033000	9.767000	-11.594000	2.789250
0.097000	9.703000	-11.577000	2.482760
0.265000	11.469000	-15.064000	29.614100
0.274000	11.342000	-15.166000	31.732800
-0.441000	11.004000	-14.323000	6.100530
0.430000	9.617000	-11.402000	1.668680
0.261000	11.239000	-15.415000	13.678200
0.221000	11.119000	-15.504000	7.580980
1.229000	9.296000	-11.673000	0.691220
1.329000	9.290000	-11.787000	0.782803
-0.555000	10.886000	-14.139000	6.737310
0.228000	9.642000	-11.557000	2.063510
-0.794000	10.382000	-11.972000	5.184800
-0.761000	10.356000	-12.461000	6.377090
-0.773000	10.364000	-12.218000	6.510840
0.037000	11.546000	-14.718000	2.414400
0.195000	10.996000	-15.593000	5.445930
-0.124000	11.382000	-14.605000	4.692120
-0.253000	11.224000	-14.519000	5.385340
-0.307000	11.123000	-14.481000	5.327430
-0.741000	10.366000	-12.700000	6.902580
0.687000	9.526000	-11.379000	1.169330
0.746000	9.441000	-11.459000	0.834916
-0.695000	10.637000	-13.688000	6.776050
-0.719000	10.388000	-12.933000	7.605930
-0.695000	10.416000	-13.162000	8.246010
0.909000	9.328000	-11.546000	0.526347
0.995000	9.284000	-11.617000	0.544376
-0.713000	10.534000	-13.488000	6.763010
-0.671000	10.449000	-13.390000	7.513650
-0.635000	10.793000	-13.927000	7.754290
1.556000	9.369000	-11.889000	1.027890
1.817000	9.689000	-11.806000	2.073900
1.883000	9.702000	-11.952000	2.341500
1.677000	9.468000	-11.895000	1.343210
2.082000	10.202000	-11.825000	2.894880
2.396000	11.288000	-12.063000	1.585550
3.294000	12.534000	-14.159000	2.243450
2.158000	10.313000	-11.906000	2.833820
2.258000	10.624000	-11.950000	2.321020
2.228000	10.451000	-11.976000	2.643260
3.161000	12.140000	-13.646000	1.931710
3.142000	12.002000	-13.578000	2.002570
3.453000	12.312000	-14.435000	1.949570
2.628000	11.390000	-12.651000	1.579740
2.523000	11.306000	-12.441000	1.940870
2.585000	11.269000	-12.573000	1.712000
2.345000	11.032000	-11.998000	1.732430
3.254000	12.408000	-13.941000	2.165990
3.256000	12.275000	-13.858000	2.110290
3.059000	11.714000	-13.319000	1.552720
3.105000	11.809000	-13.425000	1.714920
2.336000	10.874000	-12.031000	1.936190
3.497000	12.179000	-14.494000	1.940640
2.784000	11.588000	-12.928000	1.468930
3.534000	12.039000	-14.551000	1.961350
2.442000	11.234000	-12.207000	1.726920
2.922000	11.658000	-13.119000	1.464650
3.362000	12.415000	-14.220000	2.319070
2.742000	11.469000	-12.850000	1.445120
3.565000	11.896000	-14.620000	2.046810
2.108000	10.046000	-12.043000	3.042400
2.063000	9.920000	-12.114000	3.157350
-0.762000	10.335000	-11.838000	4.447740
0.144000	11.572000	-14.833000	9.645950
0.566000	9.570000	-11.381000	1.427830
-0.637000	10.669000	-13.822000	7.357920
0.193000	11.448000	-14.926000	19.500900
-0.668000	10.217000	-11.819000	4.004530
-0.567000	10.107000	-11.801000	3.734790
-0.452000	10.015000	-11.783000	3.683730
-0.333000	9.927000	-11.766000	3.594760
-0.208000	9.851000	-11.750000	3.542260
-0.084000	9.774000	-11.732000	3.240160
0.039000	9.699000	-11.713000	2.683730
0.359000	9.585000	-11.535000	1.660120
0.168000	9.633000	-11.694000	2.196480
0.297000	9.569000	-11.672000	1.766110
0.221000	11.322000	-15.024000	27.933100
1.423000	9.290000	-11.904000	0.853367
0.267000	11.218000	-15.263000	27.831700
0.250000	11.096000	-15.356000	18.981300
0.217000	10.975000	-15.442000	11.064100
-0.698000	10.297000	-12.580000	6.444020
-0.737000	10.308000	-12.089000	5.537880
-0.553000	10.769000	-14.049000	7.700200
-0.715000	10.297000	-12.336000	6.414230
-0.014000	11.404000	-14.703000	1.945940
0.617000	9.481000	-11.490000	1.064600
-0.163000	11.243000	-14.597000	4.619670
-0.205000	11.111000	-14.575000	4.719330
-0.472000	10.871000	-14.259000	6.127630
-0.352000	10.994000	-14.435000	5.371070
-0.672000	10.315000	-12.818000	7.274920
0.797000	9.350000	-11.558000	0.579277
-0.648000	10.342000	-13.051000	8.187240
0.864000	9.268000	-11.658000	0.472457
-0.622000	10.373000	-13.282000	8.508050
-0.651000	10.523000	-13.608000	6.891480
-0.600000	10.418000	-13.514000	7.308160
1.092000	9.254000	-11.713000	0.582174
1.188000	9.245000	-11.823000	0.672344
1.785000	9.580000	-11.917000	1.788170
1.846000	9.592000	-12.059000	2.022180
1.932000	9.705000	-12.101000	2.586310
1.635000	9.380000	-12.022000	1.144390
1.512000	9.296000	-12.027000	0.910572
2.012000	9.801000	-12.179000	3.148500
2.140000	10.173000	-11.967000	2.851150
2.397000	11.129000	-12.106000	1.704120
3.315000	12.405000	-14.080000	2.324010
3.140000	11.878000	-13.524000	1.911200
3.420000	12.292000	-14.290000	2.376440
3.464000	12.190000	-14.364000	2.333250
2.324000	10.714000	-12.062000	2.143350
2.392000	10.969000	-12.143000	1.881340
2.702000	11.350000	-12.772000	1.399240
2.658000	11.231000	-12.699000	1.429360
2.486000	11.182000	-12.353000	1.902730
2.535000	11.145000	-12.497000	1.866300
3.328000	12.272000	-13.998000	2.315220
3.245000	12.139000	-13.780000	2.081200
3.227000	12.002000	-13.707000	2.077960
2.305000	10.553000	-12.093000	2.380830
2.211000	10.290000	-12.049000	2.813840
3.498000	12.047000	-14.384000	2.367480
3.534000	11.897000	-14.463000	2.348180
2.870000	11.543000	-13.040000	1.460640
2.820000	11.426000	-12.966000	1.442780
3.578000	11.754000	-14.691000	2.200090
3.013000	11.608000	-13.225000	1.468190
3.138000	11.655000	-13.427000	1.595680
2.139000	10.019000	-12.190000	3.198770
-0.705000	10.258000	-11.955000	4.437930
0.092000	11.425000	-14.810000	7.063140
0.490000	9.531000	-11.512000	1.348830
0.140000	11.302000	-14.898000	15.653500
0.237000	11.198000	-15.118000	33.134000
-0.611000	10.138000	-11.938000	3.881220
-0.498000	10.040000	-11.921000	3.802450
-0.381000	9.949000	-11.904000	3.735570
-0.260000	9.864000	-11.887000	3.551720
-0.136000	9.785000	-11.870000	3.421750
-0.013000	9.707000	-11.852000	2.891780
-0.591000	10.529000	-13.737000	7.345320
-0.477000	10.747000	-14.175000	6.675930
0.249000	11.076000	-15.207000	32.064400
0.235000	10.954000	-15.293000	23.929400
0.192000	10.854000	-15.526000	7.606300
0.222000	10.832000	-15.378000	15.539900
0.111000	9.630000	-11.832000	2.248130
-0.546000	10.651000	-13.955000	8.055950
-0.629000	10.245000	-12.699000	6.714680
0.423000	9.505000	-11.647000	1.340250
-0.657000	10.233000	-12.455000	6.078640
-0.677000	10.240000	-12.207000	5.774350
0.954000	9.239000	-11.759000	0.504059
1.047000	9.215000	-11.865000	0.554995
-0.059000	11.262000	-14.686000	2.226310
-0.103000	11.122000	-14.665000	2.904920
0.673000	9.390000	-11.586000	0.756725
0.738000	9.313000	-11.692000	0.566980
-0.538000	10.411000	-13.643000	7.511070
-0.251000	10.986000	-14.535000	4.858890
-0.382000	10.862000	-14.375000	5.688360
0.238000	9.560000	-11.810000	1.778690
1.284000	9.238000	-11.935000	0.757131
1.374000	9.241000	-12.052000	0.820812
-0.600000	10.270000	-12.936000	7.907410
-0.573000	10.300000	-13.169000	8.936000
-0.547000	10.334000	-13.406000	8.268060
1.746000	9.483000	-12.038000	1.557790
1.699000	9.400000	-12.157000	1.322310
1.589000	9.309000	-12.154000	0.970573
1.894000	9.606000	-12.179000	2.225440
1.961000	9.686000	-12.252000	2.785100
2.087000	9.897000	-12.270000	3.460600
2.185000	10.147000	-12.116000	2.908100
2.443000	11.070000	-12.254000	1.836810
3.385000	12.274000	-14.144000	2.418030
3.444000	12.131000	-14.229000	2.509020
3.212000	11.867000	-13.635000	1.983890
3.193000	11.734000	-13.547000	1.764730
2.283000	10.397000	-12.138000	2.672290
3.577000	11.615000	-14.766000	2.398460
2.383000	10.808000	-12.174000	2.063150
2.370000	10.648000	-12.204000	2.232060
2.603000	11.114000	-12.630000	1.586610
2.493000	11.006000	-12.410000	1.899700
2.556000	10.998000	-12.560000	1.747880
3.322000	12.135000	-13.919000	2.294430
3.305000	11.997000	-13.842000	2.245320
2.955000	11.495000	-13.150000	1.467810
2.776000	11.308000	-12.892000	1.370900
2.728000	11.190000	-12.822000	1.312260
3.094000	11.554000	-13.334000	1.493360
3.557000	11.751000	-14.529000	2.320520
2.901000	11.379000	-13.079000	1.446380
3.506000	11.900000	-14.333000	2.544820
-0.643000	10.186000	-12.074000	4.752430
0.549000	9.445000	-11.619000	1.009460
0.042000	11.281000	-14.788000	4.514320
-0.522000	10.531000	-13.864000	8.021710
-0.542000	10.073000	-12.058000	4.186490
-0.427000	9.978000	-12.042000	3.985490
-0.308000	9.887000	-12.025000	3.695470
-0.186000	9.803000	-12.008000	3.351120
-0.063000	9.721000	-11.990000	2.988800
0.059000	9.640000	-11.972000	2.415820
0.186000	9.568000	-11.951000	1.910460
0.364000	9.492000	-11.787000	1.356210
0.309000	9.491000	-11.928000	1.432350
0.174000	11.179000	-14.987000	24.625600
0.215000	11.055000	-15.066000	32.602800
-0.475000	10.416000	-13.774000	8.042800
-0.283000	10.856000	-14.480000	5.332230
-0.587000	10.180000	-12.575000	6.209350
-0.616000	10.175000	-12.326000	5.706860
-0.554000	10.201000	-12.817000	7.245700
0.614000	9.366000	-11.726000	0.749756
-0.464000	10.632000	-14.082000	7.762120
0.244000	10.933000	-15.147000	35.598500
0.256000	10.812000	-15.232000	32.715400
-0.004000	11.139000	-14.764000	2.049260
-0.147000	10.987000	-14.632000	3.702270
1.142000	9.209000	-11.976000	0.647587
1.458000	9.247000	-12.171000	0.852179
-0.521000	10.233000	-13.053000	8.963180
0.819000	9.259000	-11.801000	0.492198
0.908000	9.224000	-11.910000	0.507501
-0.496000	10.262000	-13.289000	9.316340
-0.388000	10.735000	-14.294000	6.255730
-0.465000	10.300000	-13.541000	8.111490
1.233000	9.209000	-12.089000	0.729271
1.809000	9.502000	-12.194000	1.780930
2.159000	9.996000	-12.339000	3.498570
2.209000	10.120000	-12.266000	3.112270
1.898000	9.570000	-12.306000	2.251290
1.541000	9.250000	-12.289000	0.865152
1.660000	9.323000	-12.280000	1.058880
2.034000	9.776000	-12.342000	3.411620
2.252000	10.253000	-12.200000	2.899010
3.390000	12.133000	-14.065000	2.445080
2.438000	10.905000	-12.287000	1.947040
3.474000	11.982000	-14.253000	2.645970
2.343000	10.496000	-12.245000	2.513500
2.312000	10.351000	-12.295000	2.794530
2.427000	10.742000	-12.312000	2.085320
3.376000	11.992000	-13.982000	2.426740
3.286000	11.861000	-13.766000	2.085170
3.270000	11.727000	-13.688000	1.882820
3.562000	11.609000	-14.608000	2.473460
3.039000	11.445000	-13.259000	1.485390
2.983000	11.331000	-13.189000	1.461330
3.201000	11.593000	-13.517000	1.634810
3.163000	11.501000	-13.445000	1.574380
2.847000	11.262000	-13.011000	1.403330
2.674000	11.074000	-12.755000	1.349890
2.619000	10.962000	-12.688000	1.469670
2.522000	10.892000	-12.509000	1.857960
2.571000	10.854000	-12.622000	1.659080
2.799000	11.145000	-12.941000	1.325110
3.520000	11.748000	-14.360000	2.449130
-0.579000	10.121000	-12.193000	5.018440
0.489000	9.425000	-11.758000	1.000940
0.093000	11.159000	-14.868000	11.516600
-0.468000	10.017000	-12.179000	4.560840
-0.351000	9.922000	-12.163000	4.167070
-0.231000	9.833000	-12.146000	3.765650
-0.110000	9.747000	-12.129000	3.332570
0.017000	9.671000	-12.111000	2.947330
-0.419000	10.314000	-13.684000	8.233410
-0.292000	10.730000	-14.404000	6.252130
0.688000	9.300000	-11.838000	0.590560
0.773000	9.254000	-11.950000	0.514653
0.434000	9.420000	-11.902000	1.044200
-0.547000	10.119000	-12.446000	5.742870
-0.513000	10.134000	-12.694000	6.501040
0.238000	10.688000	-15.315000	23.521600
0.154000	11.036000	-14.935000	20.330100
0.201000	10.914000	-15.009000	28.953800
0.239000	10.790000	-15.085000	36.431400
-0.475000	10.163000	-12.934000	8.204050
-0.049000	10.998000	-14.734000	1.044710
-0.441000	10.519000	-13.990000	8.373700
0.266000	10.667000	-15.164000	38.945600
-0.180000	10.855000	-14.581000	4.565740
-0.402000	10.411000	-13.897000	8.690690
0.141000	9.591000	-12.092000	2.354370
0.265000	9.513000	-12.071000	1.766530
1.000000	9.206000	-12.020000	0.548388
1.093000	9.196000	-12.131000	0.620628
-0.382000	10.615000	-14.206000	6.952690
-0.420000	10.222000	-13.410000	9.078070
-0.444000	10.195000	-13.171000	9.720560
1.323000	9.204000	-12.202000	0.769756
-0.358000	10.231000	-13.616000	8.523380
1.749000	9.406000	-12.279000	1.433040
1.975000	9.651000	-12.401000	2.909470
1.411000	9.200000	-12.316000	0.763422
1.826000	9.461000	-12.357000	1.770850
2.113000	9.874000	-12.444000	3.850590
2.183000	9.988000	-12.466000	3.839230
2.229000	10.093000	-12.411000	3.455060
1.618000	9.262000	-12.405000	0.969449
3.432000	11.986000	-14.128000	2.645020
2.480000	10.831000	-12.416000	1.947620
2.275000	10.216000	-12.352000	3.098050
3.469000	11.834000	-14.206000	2.631560
2.403000	10.588000	-12.350000	2.303250
2.375000	10.442000	-12.395000	2.573000
3.355000	11.853000	-13.904000	2.257990
3.336000	11.717000	-13.825000	2.021460
3.540000	11.600000	-14.452000	2.393710
2.519000	10.759000	-12.543000	1.832170
3.544000	11.474000	-14.688000	2.704210
2.927000	11.215000	-13.123000	1.395070
2.870000	11.098000	-13.059000	1.334750
2.743000	11.030000	-12.876000	1.261680
3.114000	11.395000	-13.372000	1.559000
2.684000	10.917000	-12.811000	1.269170
3.257000	11.595000	-13.621000	1.690690
3.057000	11.282000	-13.305000	1.566400
2.625000	10.809000	-12.744000	1.396890
3.232000	11.466000	-13.558000	1.603610
-0.507000	10.066000	-12.314000	5.282130
0.052000	11.016000	-14.834000	6.843460
0.561000	9.356000	-11.872000	0.754820
-0.392000	9.966000	-12.299000	4.882920
-0.274000	9.872000	-12.284000	4.427130
-0.153000	9.783000	-12.268000	3.920260
-0.027000	9.703000	-12.251000	3.501900
0.101000	9.628000	-12.232000	3.085210
0.226000	9.550000	-12.212000	2.425200
0.390000	9.439000	-12.047000	1.262750
0.351000	9.474000	-12.190000	1.777160
0.861000	9.223000	-12.064000	0.509148
0.952000	9.203000	-12.177000	0.532188
-0.198000	10.725000	-14.514000	5.547910
1.184000	9.183000	-12.243000	0.677811
1.276000	9.178000	-12.354000	0.686265
0.120000	10.893000	-14.889000	13.923100
0.178000	10.770000	-14.952000	21.876300
0.233000	10.645000	-15.018000	31.829800
-0.473000	10.071000	-12.566000	5.904790
-0.434000	10.094000	-12.812000	7.146800
-0.395000	10.128000	-13.052000	9.198440
0.641000	9.304000	-11.988000	0.620248
-0.077000	10.862000	-14.681000	2.603930
-0.357000	10.506000	-14.111000	8.129860
-0.323000	10.400000	-14.018000	9.059140
-0.288000	10.609000	-14.319000	7.077030
-0.337000	10.179000	-13.518000	8.893260
0.247000	10.543000	-15.249000	30.546600
-0.367000	10.157000	-13.289000	10.093200
-0.352000	10.311000	-13.806000	8.880200
-0.299000	10.219000	-13.719000	8.878440
1.738000	9.348000	-12.413000	1.233580
2.049000	9.735000	-12.500000	3.625500
1.908000	9.532000	-12.455000	2.342840
2.180000	9.932000	-12.583000	4.224940
2.240000	10.055000	-12.553000	3.851090
1.497000	9.200000	-12.428000	0.809212
1.367000	9.171000	-12.465000	0.707852
1.678000	9.270000	-12.508000	1.025570
2.342000	10.302000	-12.446000	2.854240
2.292000	10.176000	-12.502000	3.320420
2.462000	10.677000	-12.451000	2.063700
3.412000	11.845000	-14.049000	2.585210
3.320000	11.582000	-13.750000	1.798740
3.295000	11.449000	-13.679000	1.663440
3.384000	11.707000	-13.968000	2.401460
2.437000	10.530000	-12.494000	2.289110
3.000000	11.167000	-13.240000	1.499690
2.939000	11.051000	-13.178000	1.421470
2.811000	10.983000	-12.996000	1.250270
2.751000	10.870000	-12.931000	1.163760
3.188000	11.351000	-13.488000	1.576290
3.479000	11.686000	-14.230000	2.581360
3.501000	11.578000	-14.307000	2.392370
3.530000	11.462000	-14.535000	2.654030
3.131000	11.237000	-13.422000	1.616800
2.686000	10.760000	-12.866000	1.178530
2.563000	10.708000	-12.672000	1.640220
-0.432000	10.015000	-12.434000	5.482740
0.020000	10.875000	-14.786000	3.237090
0.514000	9.367000	-12.019000	0.864233
-0.314000	9.919000	-12.420000	5.129960
-0.194000	9.826000	-12.405000	4.594700
-0.071000	9.741000	-12.389000	4.030870
0.057000	9.662000	-12.372000	3.576220
0.186000	9.590000	-12.352000	3.110880
0.731000	9.274000	-12.102000	0.575017
0.823000	9.253000	-12.217000	0.559078
-0.198000	10.602000	-14.434000	6.734440
-0.273000	10.493000	-14.231000	7.859260
-0.395000	10.028000	-12.686000	6.182700
0.090000	10.751000	-14.838000	7.760060
-0.354000	10.058000	-12.930000	7.878790
-0.318000	10.090000	-13.170000	9.873230
0.477000	9.401000	-12.166000	1.203130
0.314000	9.517000	-12.332000	2.488040
0.159000	10.628000	-14.891000	14.144500
-0.098000	10.729000	-14.618000	4.105770
-0.242000	10.387000	-14.137000	9.045910
1.047000	9.191000	-12.287000	0.573796
1.140000	9.194000	-12.399000	0.616758
-0.279000	10.301000	-13.925000	9.507300
0.271000	10.517000	-15.097000	39.536400
0.215000	10.503000	-14.954000	24.589100
-0.289000	10.118000	-13.404000	9.952480
-0.230000	10.206000	-13.833000	9.491450
-0.253000	10.140000	-13.624000	8.934420
2.501000	10.616000	-12.587000	1.949970
3.435000	11.700000	-14.107000	2.649700
3.369000	11.571000	-13.888000	2.065830
3.347000	11.434000	-13.814000	1.819030
3.504000	11.331000	-14.617000	2.906780
2.617000	10.657000	-12.798000	1.367300
2.542000	10.563000	-12.724000	1.742830
3.510000	11.445000	-14.385000	2.397420
2.878000	10.936000	-13.116000	1.311860
2.815000	10.822000	-13.053000	1.166620
3.456000	11.560000	-14.167000	2.461950
3.486000	11.315000	-14.467000	2.767860
2.406000	10.389000	-12.543000	2.543950
3.256000	11.320000	-13.611000	1.582420
3.072000	11.122000	-13.358000	1.577810
3.011000	11.005000	-13.297000	1.494920
3.201000	11.200000	-13.545000	1.648610
2.750000	10.711000	-12.988000	1.084900
2.362000	10.255000	-12.597000	2.924320
2.312000	10.126000	-12.648000	3.452440
2.120000	9.808000	-12.610000	4.267920
1.987000	9.606000	-12.553000	3.058420
1.579000	9.209000	-12.537000	0.881691
1.458000	9.173000	-12.576000	0.784777
1.838000	9.415000	-12.507000	1.660830
1.766000	9.312000	-12.570000	1.220920
1.231000	9.181000	-12.511000	0.626604
2.256000	9.998000	-12.690000	4.026030
-0.355000	9.971000	-12.554000	5.684160
-0.004000	10.737000	-14.729000	2.095000
0.603000	9.334000	-12.137000	0.789323
0.243000	10.400000	-15.183000	35.903200
-0.236000	9.875000	-12.541000	5.257580
-0.112000	9.787000	-12.526000	4.686420
0.015000	9.707000	-12.509000	4.182900
0.146000	9.634000	-12.491000	3.733860
0.276000	9.563000	-12.471000	3.224780
0.442000	9.447000	-12.309000	1.822400
0.407000	9.497000	-12.449000	2.657140
0.069000	10.612000	-14.777000	3.988140
-0.111000	10.598000	-14.549000	5.446750
-0.315000	9.990000	-12.805000	6.624290
-0.273000	10.024000	-13.048000	8.727880
-0.238000	10.056000	-13.286000	10.400800
0.915000	9.237000	-12.330000	0.543670
1.008000	9.228000	-12.442000	0.562098
0.695000	9.312000	-12.253000	0.770114
-0.184000	10.486000	-14.346000	7.975030
-0.208000	10.081000	-13.516000	9.757740
0.241000	10.376000	-15.031000	35.407500
-0.202000	10.287000	-14.043000	9.886420
-0.155000	10.191000	-13.949000	10.129900
0.144000	10.487000	-14.825000	9.136210
-0.160000	10.375000	-14.256000	9.062690
-0.180000	10.120000	-13.737000	9.295830
3.409000	11.562000	-14.030000	2.389930
2.474000	10.474000	-12.637000	2.148920
3.314000	11.300000	-13.742000	1.674970
3.260000	11.173000	-13.677000	1.748700
3.391000	11.424000	-13.954000	2.014460
3.143000	11.081000	-13.481000	1.640710
3.081000	10.962000	-13.419000	1.571590
2.436000	10.335000	-12.690000	2.464250
2.390000	10.200000	-12.745000	2.922560
2.673000	10.607000	-12.925000	1.174300
2.595000	10.508000	-12.855000	1.424080
2.947000	10.889000	-13.236000	1.361180
2.883000	10.774000	-13.174000	1.204420
3.474000	11.428000	-14.239000	2.242320
3.466000	11.296000	-14.319000	2.373350
3.468000	11.207000	-14.700000	3.306200
3.454000	11.188000	-14.550000	3.084750
2.812000	10.663000	-13.112000	1.097370
2.060000	9.680000	-12.656000	3.931120
1.921000	9.485000	-12.606000	2.336140
1.099000	9.220000	-12.554000	0.585265
1.853000	9.369000	-12.660000	1.636140
1.669000	9.235000	-12.633000	1.036820
1.550000	9.188000	-12.681000	0.918137
2.340000	10.066000	-12.791000	3.468170
2.197000	9.872000	-12.725000	4.504410
1.323000	9.179000	-12.621000	0.715635
-0.276000	9.929000	-12.675000	5.793210
-0.021000	10.601000	-14.663000	3.387630
0.569000	9.376000	-12.283000	1.183250
0.230000	10.262000	-15.117000	37.438400
-0.153000	9.837000	-12.661000	5.270150
-0.099000	10.479000	-14.464000	7.124580
-0.080000	10.364000	-14.376000	8.706660
0.059000	10.476000	-14.706000	3.010550
-0.026000	9.755000	-12.646000	4.865640
0.105000	9.682000	-12.628000	4.550920
0.237000	9.612000	-12.609000	4.123130
0.370000	9.548000	-12.588000	3.623500
0.788000	9.297000	-12.367000	0.761855
0.882000	9.288000	-12.479000	0.753595
0.975000	9.280000	-12.592000	0.763461
-0.233000	9.956000	-12.923000	7.123640
-0.192000	9.992000	-13.165000	9.609590
0.537000	9.431000	-12.425000	1.944410
-0.129000	10.049000	-13.631000	9.707900
-0.159000	10.020000	-13.402000	10.394200
0.209000	10.121000	-15.065000	36.463600
-0.124000	10.272000	-14.163000	10.095800
0.204000	10.361000	-14.884000	19.262200
-0.106000	10.103000	-13.852000	9.974170
-0.080000	10.175000	-14.068000	10.662600
2.516000	10.418000	-12.776000	1.883350
3.429000	11.421000	-14.097000	2.180680
3.407000	11.101000	-14.779000	4.541890
3.363000	11.286000	-13.881000	1.778360
3.311000	11.154000	-13.815000	1.838550
2.733000	10.557000	-13.052000	1.117910
2.650000	10.456000	-12.986000	1.259480
3.436000	11.284000	-14.171000	2.063360
2.476000	10.277000	-12.834000	2.219330
3.201000	11.049000	-13.613000	1.800120
3.435000	11.169000	-14.401000	2.823400
3.140000	10.927000	-13.550000	1.742440
3.017000	10.845000	-13.358000	1.440740
2.949000	10.729000	-13.297000	1.289860
2.873000	10.618000	-13.239000	1.185100
3.406000	11.072000	-14.635000	3.737720
1.998000	9.555000	-12.706000	3.248700
1.933000	9.435000	-12.758000	2.408760
1.192000	9.216000	-12.665000	0.658517
2.431000	10.136000	-12.890000	2.712590
1.760000	9.280000	-12.721000	1.374120
1.645000	9.218000	-12.781000	1.205650
2.282000	9.935000	-12.830000	4.111320
2.136000	9.747000	-12.763000	4.600540
1.417000	9.184000	-12.730000	0.861419
-0.193000	9.895000	-12.794000	6.089880
-0.018000	10.475000	-14.583000	5.299870
0.226000	10.229000	-14.964000	31.635100
0.663000	9.362000	-12.398000	1.223840
-0.067000	9.809000	-12.780000	5.672060
0.502000	9.485000	-12.565000	2.978190
0.065000	9.735000	-12.763000	5.452890
0.197000	9.664000	-12.746000	5.093900
0.330000	9.598000	-12.726000	4.659490
-0.149000	9.927000	-13.041000	8.088390
0.132000	10.348000	-14.757000	5.705080
-0.109000	9.961000	-13.282000	10.228000
-0.052000	10.027000	-13.747000	9.980400
0.205000	10.217000	-14.813000	17.097500
-0.002000	10.356000	-14.497000	7.193390
-0.078000	9.988000	-13.518000	10.338600
0.757000	9.353000	-12.512000	1.287050
0.850000	9.345000	-12.625000	1.327140
-0.049000	10.256000	-14.284000	9.903640
-0.030000	10.087000	-13.969000	10.759500
1.066000	9.273000	-12.704000	0.839666
-0.004000	10.160000	-14.188000	11.037700
2.566000	10.361000	-12.913000	1.580380
3.405000	11.281000	-14.024000	1.883120
3.251000	11.026000	-13.751000	1.951230
3.190000	10.900000	-13.688000	1.938100
3.356000	11.143000	-13.957000	1.891690
2.528000	10.215000	-12.974000	1.895000
2.795000	10.510000	-13.179000	1.120140
2.712000	10.406000	-13.115000	1.164900
3.076000	10.807000	-13.488000	1.598770
3.008000	10.690000	-13.428000	1.457570
2.934000	10.576000	-13.369000	1.326360
3.345000	10.969000	-14.724000	5.172740
3.394000	11.047000	-14.487000	3.260620
3.415000	11.152000	-14.253000	2.364980
3.378000	11.025000	-14.338000	2.842210
2.485000	10.060000	-13.040000	2.392950
2.376000	9.998000	-12.931000	3.385920
2.409000	9.916000	-13.057000	3.201380
2.491000	9.948000	-13.140000	2.399800
1.849000	9.333000	-12.816000	1.892390
2.221000	9.807000	-12.867000	4.657200
1.285000	9.213000	-12.775000	0.817744
1.740000	9.259000	-12.876000	1.630220
2.074000	9.623000	-12.809000	4.270790
1.514000	9.196000	-12.835000	1.085030
2.010000	9.501000	-12.858000	3.502520
-0.108000	9.865000	-12.912000	6.696050
0.631000	9.420000	-12.540000	2.116250
0.067000	10.349000	-14.625000	3.910000
0.226000	10.063000	-14.901000	31.181300
0.215000	9.883000	-14.921000	40.249500
0.024000	9.790000	-12.897000	6.541480
0.156000	9.717000	-12.881000	6.162670
0.290000	9.650000	-12.863000	5.686140
0.464000	9.537000	-12.705000	4.067300
0.424000	9.587000	-12.843000	5.152500
0.146000	10.219000	-14.675000	3.921930
-0.063000	9.902000	-13.157000	9.161620
0.002000	9.961000	-13.635000	10.390000
0.726000	9.413000	-12.654000	2.258680
-0.028000	9.931000	-13.399000	10.523100
0.023000	10.006000	-13.865000	10.528000
0.943000	9.338000	-12.738000	1.379380
0.023000	10.242000	-14.408000	9.028030
0.068000	10.144000	-14.312000	10.968200
1.159000	9.268000	-12.815000	0.946202
0.046000	10.070000	-14.089000	11.533000
2.623000	10.308000	-13.047000	1.379610
3.393000	11.141000	-14.103000	2.003190
3.362000	11.009000	-14.187000	2.358650
3.300000	11.009000	-13.891000	2.002690
3.236000	10.881000	-13.829000	2.037820
2.592000	10.162000	-13.111000	1.611560
3.129000	10.776000	-13.624000	1.773770
2.856000	10.466000	-13.309000	1.208720
2.775000	10.360000	-13.246000	1.132690
3.061000	10.656000	-13.563000	1.608290
2.989000	10.540000	-13.503000	1.460360
3.341000	10.933000	-14.578000	4.174490
2.571000	10.027000	-13.182000	1.826560
2.541000	9.897000	-13.254000	2.071000
2.445000	9.835000	-13.181000	2.828580
3.332000	10.904000	-14.428000	3.319790
2.313000	9.864000	-12.966000	4.116720
2.344000	9.790000	-13.099000	3.896590
1.380000	9.216000	-12.883000	1.021570
1.932000	9.391000	-12.914000	2.723080
1.834000	9.302000	-12.973000	2.185740
1.613000	9.219000	-12.935000	1.409370
2.157000	9.683000	-12.911000	4.822150
2.091000	9.563000	-12.959000	4.476210
-0.018000	9.846000	-13.028000	7.841440
0.596000	9.476000	-12.681000	3.252270
0.086000	10.228000	-14.539000	5.580030
0.227000	10.087000	-14.730000	16.435700
0.252000	9.936000	-14.776000	33.038800
0.115000	9.772000	-13.014000	7.498250
0.247000	9.701000	-12.998000	6.818010
0.382000	9.636000	-12.981000	6.200560
0.559000	9.529000	-12.821000	4.437340
0.518000	9.579000	-12.960000	5.604760
1.254000	9.268000	-12.924000	1.076400
0.819000	9.405000	-12.768000	2.367160
0.023000	9.878000	-13.274000	9.977660
0.079000	9.936000	-13.754000	10.461100
0.055000	9.904000	-13.516000	10.759300
0.136000	10.130000	-14.441000	8.360210
0.120000	10.053000	-14.212000	12.076400
0.101000	9.989000	-13.984000	11.503600
1.035000	9.331000	-12.851000	1.448100
2.686000	10.259000	-13.181000	1.233730
3.339000	11.003000	-14.037000	2.059140
2.663000	10.116000	-13.247000	1.375560
3.176000	10.753000	-13.765000	1.900180
3.109000	10.630000	-13.703000	1.754140
3.039000	10.510000	-13.642000	1.632430
3.280000	10.868000	-13.972000	2.082890
3.277000	10.833000	-14.676000	6.067050
2.636000	9.977000	-13.316000	1.568460
2.591000	9.841000	-13.388000	1.745730
2.486000	9.773000	-13.315000	2.402110
2.916000	10.426000	-13.441000	1.310820
2.836000	10.317000	-13.379000	1.183010
3.272000	10.790000	-14.525000	4.339390
3.319000	10.884000	-14.275000	2.796140
2.247000	9.739000	-13.008000	4.674810
1.481000	9.230000	-12.985000	1.283630
2.178000	9.620000	-13.057000	4.880670
2.379000	9.719000	-13.235000	3.400780
1.716000	9.250000	-13.032000	1.861620
2.017000	9.449000	-13.012000	3.601780
1.928000	9.345000	-13.072000	2.842380
2.410000	9.659000	-13.379000	2.847680
0.070000	9.825000	-13.145000	8.869230
0.691000	9.469000	-12.796000	3.468030
0.264000	9.773000	-14.805000	46.382800
0.180000	10.105000	-14.581000	3.300390
0.205000	9.755000	-13.131000	8.312020
0.258000	9.974000	-14.624000	15.491800
0.157000	9.916000	-13.874000	11.101000
1.129000	9.328000	-12.962000	1.531670
0.653000	9.521000	-12.937000	4.722550
0.339000	9.687000	-13.116000	7.483820
0.475000	9.628000	-13.098000	6.803800
0.136000	9.881000	-13.635000	10.842900
0.109000	9.857000	-13.391000	10.782600
1.350000	9.272000	-13.030000	1.243450
0.189000	10.035000	-14.341000	11.295800
0.176000	9.970000	-14.108000	12.407100
0.246000	9.949000	-14.236000	12.679900
0.911000	9.398000	-12.882000	2.460210
2.752000	10.213000	-13.314000	1.183510
3.303000	10.871000	-14.123000	2.347200
2.724000	10.071000	-13.385000	1.334160
3.218000	10.738000	-13.909000	2.018660
3.149000	10.612000	-13.847000	1.948240
3.268000	10.763000	-14.367000	3.285620
3.258000	10.744000	-14.212000	2.677640
2.961000	10.396000	-13.582000	1.507750
2.888000	10.282000	-13.518000	1.344970
2.688000	9.930000	-13.457000	1.488910
3.070000	10.493000	-13.788000	1.954710
2.522000	9.719000	-13.460000	2.030850
3.196000	10.681000	-14.635000	6.786620
2.275000	9.671000	-13.149000	4.415800
2.303000	9.607000	-13.292000	3.814130
1.580000	9.254000	-13.083000	1.687480
2.105000	9.506000	-13.109000	4.434910
2.020000	9.405000	-13.167000	3.694880
1.809000	9.293000	-13.133000	2.440770
0.158000	9.806000	-13.263000	9.739040
0.784000	9.461000	-12.911000	3.649070
0.235000	10.007000	-14.478000	5.593940
0.312000	9.832000	-14.665000	38.482300
0.311000	9.668000	-14.682000	47.672000
0.294000	9.738000	-13.250000	9.058070
0.612000	9.573000	-13.076000	6.103320
0.193000	9.833000	-13.510000	11.121400
0.218000	9.860000	-13.755000	11.073900
0.430000	9.676000	-13.234000	8.130320
0.235000	9.897000	-13.996000	12.066600
1.003000	9.390000	-12.996000	2.572720
0.877000	9.454000	-13.026000	3.860720
0.311000	9.882000	-14.123000	13.221000
0.311000	9.925000	-14.373000	9.046180
1.448000	9.284000	-13.130000	1.591030
1.224000	9.327000	-13.072000	1.620980
2.810000	10.172000	-13.451000	1.266170
3.244000	10.735000	-14.059000	2.268550
2.770000	10.035000	-13.529000	1.468620
3.201000	10.653000	-14.462000	4.406430
3.200000	10.627000	-14.304000	3.183120
3.176000	10.605000	-13.996000	2.191040
2.632000	9.792000	-13.535000	1.647360
2.990000	10.378000	-13.728000	1.908520
3.100000	10.481000	-13.935000	2.230880
2.919000	10.260000	-13.665000	1.719730
2.417000	9.635000	-13.536000	2.951360
2.200000	9.559000	-13.202000	4.533640
2.309000	9.573000	-13.445000	3.611730
2.110000	9.461000	-13.262000	4.325270
1.675000	9.284000	-13.185000	2.224930
1.899000	9.346000	-13.232000	3.266890
0.246000	9.787000	-13.381000	10.573200
0.746000	9.515000	-13.053000	5.040610
0.335000	9.884000	-14.518000	15.925800
1.544000	9.298000	-13.226000	2.085520
0.335000	9.531000	-14.607000	41.449200
0.402000	9.746000	-14.564000	44.538200
0.383000	9.722000	-13.369000	9.660770
0.299000	9.842000	-13.877000	11.783100
0.377000	9.823000	-14.002000	12.721200
1.098000	9.387000	-13.109000	2.656120
0.970000	9.448000	-13.141000	3.965250
0.276000	9.811000	-13.631000	11.025200
0.568000	9.619000	-13.216000	7.373270
0.839000	9.506000	-13.170000	5.219570
0.521000	9.663000	-13.354000	8.595480
0.382000	9.859000	-14.257000	12.228400
1.321000	9.329000	-13.178000	1.819550
3.193000	10.609000	-14.149000	2.574930
2.848000	10.145000	-13.598000	1.566380
3.109000	10.568000	-14.676000	10.284600
3.118000	10.481000	-14.087000	2.604750
2.722000	9.900000	-13.610000	1.660930
2.524000	9.711000	-13.617000	2.524850
3.118000	10.553000	-14.543000	6.980370
3.014000	10.366000	-13.877000	2.278560
2.937000	10.250000	-13.815000	2.156490
3.120000	10.525000	-14.392000	4.616670
2.207000	9.515000	-13.354000	4.190120
2.293000	9.568000	-13.603000	4.453690
2.398000	9.641000	-13.703000	4.638390
1.765000	9.321000	-13.290000	2.968880
1.991000	9.401000	-13.329000	4.194110
0.332000	9.766000	-13.502000	10.750600
0.705000	9.565000	-13.194000	6.480270
0.436000	9.802000	-14.409000	14.522300
0.404000	9.626000	-14.570000	53.318300
0.472000	9.706000	-13.490000	9.929990
0.661000	9.610000	-13.335000	7.727970
1.196000	9.388000	-13.220000	2.758630
1.065000	9.442000	-13.256000	3.948000
0.932000	9.499000	-13.286000	5.204500
0.360000	9.791000	-13.753000	11.270600
0.444000	9.776000	-13.877000	12.094000
1.629000	9.327000	-13.333000	2.785320
0.452000	9.807000	-14.131000	13.940300
1.419000	9.335000	-13.273000	2.154600
0.462000	9.524000	-14.521000	45.133400
2.868000	10.130000	-13.751000	1.946430
2.798000	10.013000	-13.682000	1.768650
3.126000	10.496000	-14.240000	3.228360
3.034000	10.461000	-14.624000	10.959900
3.033000	10.432000	-14.479000	7.456210
2.635000	9.793000	-13.692000	2.344570
2.517000	9.730000	-13.772000	4.260580
3.029000	10.366000	-14.027000	2.731900
2.950000	10.248000	-13.967000	2.703820
3.033000	10.403000	-14.329000	4.916260
2.410000	9.688000	-13.853000	7.708820
2.326000	9.627000	-13.818000	8.165700
2.190000	9.505000	-13.514000	4.549450
2.086000	9.454000	-13.423000	4.739210
2.256000	9.582000	-13.745000	7.148780
1.859000	9.364000	-13.393000	3.990150
1.715000	9.360000	-13.444000	3.785500
0.798000	9.555000	-13.313000	6.472360
0.417000	9.746000	-13.624000	10.638000
0.520000	9.660000	-14.493000	47.356400
1.512000	9.346000	-13.350000	2.640010
0.517000	9.783000	-14.264000	11.415500
0.614000	9.653000	-13.474000	9.048610
0.754000	9.601000	-13.455000	7.905130
0.524000	9.759000	-14.005000	13.076000
0.506000	9.732000	-13.747000	11.069500
1.298000	9.391000	-13.329000	2.953500
1.167000	9.444000	-13.371000	4.111300
1.028000	9.496000	-13.401000	5.313190
0.506000	9.406000	-14.453000	32.651000
2.872000	10.131000	-13.905000	2.624340
2.806000	10.007000	-13.840000	2.472440
2.726000	9.898000	-13.766000	2.375670
3.038000	10.375000	-14.179000	3.426560
2.946000	10.263000	-14.119000	3.698330
2.618000	9.816000	-13.849000	4.235980
2.498000	9.763000	-13.925000	7.701290
2.946000	10.348000	-14.571000	12.014000
2.940000	10.316000	-14.421000	8.193500
2.324000	9.639000	-13.924000	10.748500
2.192000	9.467000	-14.278000	24.975900
2.262000	9.590000	-14.204000	25.966000
2.153000	9.513000	-14.131000	27.539700
2.263000	9.607000	-14.042000	16.974800
2.157000	9.530000	-13.664000	6.920360
2.053000	9.479000	-13.577000	6.373390
1.951000	9.428000	-13.485000	5.523560
2.236000	9.584000	-13.890000	11.420300
1.814000	9.406000	-13.546000	5.951140
1.558000	9.381000	-13.480000	3.923940
0.562000	9.694000	-13.612000	10.113300
0.892000	9.548000	-13.430000	6.534010
0.568000	9.734000	-14.378000	22.738900
1.411000	9.388000	-13.421000	3.256810
1.279000	9.450000	-13.496000	4.618140
1.125000	9.498000	-13.513000	5.665420
0.707000	9.643000	-13.597000	9.127320
0.600000	9.746000	-14.137000	13.878900
0.662000	9.724000	-14.276000	17.704900
0.594000	9.722000	-13.873000	12.059600
0.603000	9.523000	-14.459000	50.920000
0.988000	9.546000	-13.546000	6.710620
2.134000	9.534000	-13.975000	18.740400
2.077000	9.387000	-14.218000	27.330400
2.391000	9.691000	-13.998000	11.427300
2.865000	10.144000	-14.059000	3.961050
2.784000	10.030000	-13.994000	4.204730
2.704000	9.919000	-13.923000	4.267430
2.279000	9.407000	-14.349000	12.432700
2.939000	10.288000	-14.270000	5.520590
2.892000	10.246000	-14.672000	15.359100
2.594000	9.843000	-14.004000	7.424870
2.312000	9.533000	-14.331000	18.578500
2.844000	10.240000	-14.518000	12.906700
2.837000	10.208000	-14.363000	9.403550
2.371000	9.679000	-14.144000	17.784900
2.137000	9.530000	-13.817000	11.216500
2.028000	9.489000	-13.735000	10.236100
1.918000	9.449000	-13.643000	8.530360
1.669000	9.408000	-13.596000	6.465810
1.543000	9.426000	-13.627000	6.253890
0.655000	9.684000	-13.736000	10.443400
0.672000	9.638000	-14.417000	44.937800
0.849000	9.595000	-13.575000	7.919590
1.424000	9.433000	-13.567000	4.923430
0.656000	9.390000	-14.404000	39.270500
0.803000	9.638000	-13.721000	9.256920
0.681000	9.718000	-14.004000	13.518800
0.756000	9.707000	-14.143000	17.059800
1.203000	9.508000	-13.615000	6.788360
1.086000	9.549000	-13.658000	7.402090
2.036000	9.438000	-14.058000	26.982800
2.483000	9.766000	-14.080000	11.235800
2.385000	9.439000	-14.413000	9.643550
2.841000	10.179000	-14.209000	6.434130
2.762000	10.057000	-14.148000	7.145620
2.681000	9.943000	-14.080000	7.474090
2.364000	9.660000	-14.298000	24.725900
2.748000	10.117000	-14.466000	13.736100
2.018000	9.482000	-13.897000	18.977500
1.895000	9.456000	-13.806000	15.170500
1.774000	9.442000	-13.703000	11.159100
1.614000	9.448000	-13.762000	13.731400
1.450000	9.463000	-13.725000	9.045130
0.791000	9.643000	-14.290000	33.398300
0.751000	9.515000	-14.386000	49.783400
0.813000	9.371000	-14.362000	44.348400
0.749000	9.679000	-13.865000	11.379900
1.317000	9.489000	-13.663000	7.069050
0.949000	9.594000	-13.695000	8.249810
0.845000	9.677000	-14.000000	13.912400
1.201000	9.547000	-13.751000	9.739410
2.749000	10.086000	-14.306000	9.857550
2.664000	9.964000	-14.241000	11.102600
2.575000	9.857000	-14.163000	10.644500
2.467000	9.763000	-14.240000	17.320000
2.418000	9.592000	-14.420000	13.686300
2.665000	10.032000	-14.590000	20.453300
1.892000	9.427000	-13.980000	26.570200
1.755000	9.436000	-13.868000	20.868200
1.620000	9.453000	-13.921000	27.397400
1.478000	9.477000	-13.882000	20.467200
0.922000	9.671000	-14.158000	26.217900
0.908000	9.513000	-14.305000	44.126400
0.907000	9.636000	-13.848000	10.044800
1.061000	9.594000	-13.811000	10.421100
1.329000	9.509000	-13.827000	12.740200
0.973000	9.349000	-14.307000	40.273900
2.676000	9.977000	-14.408000	15.015900
2.581000	9.848000	-14.328000	15.509200
2.439000	9.751000	-14.413000	23.474400
1.514000	9.436000	-14.043000	32.099800
1.022000	9.621000	-13.980000	16.054700
1.195000	9.575000	-13.916000	18.538200
1.343000	9.506000	-14.002000	27.426800
1.077000	9.473000	-14.218000	37.552900
1.186000	9.569000	-14.094000	31.047200
2.609000	9.848000	-14.497000	17.220900
